# patient_id 055-69-54
# patient_first_name DOROTHY
# patient_middle_initial _
# patient_last_name CULLEN
# astroid_id 74069
# course_name 1st
# beam_name 180deg1
# gantry 180.0
# couch_rotation -0.0
# gigaproton_total 2886
# rows_total 2886
# E(MeV) X(mm) Y(mm) N(Gp)
164.287	46.347	-17.739	1.000000000
164.287	43.575	-12.938	1.000000000
164.287	7.538	-8.137	1.000000000
164.287	13.082	-8.137	1.000000000
164.287	46.347	-8.137	1.000000000
164.287	4.766	-3.335	1.000000000
164.287	10.310	-3.335	1.000000000
164.287	15.855	-3.335	1.000000000
164.287	43.575	-3.335	1.000000000
164.287	1.994	1.466	1.000000000
164.287	7.538	1.466	1.000000000
164.287	13.082	1.466	1.000000000
164.287	46.347	1.466	1.000000000
164.287	10.310	6.267	1.000000000
164.287	43.575	6.267	1.000000000
164.287	46.347	11.069	1.000000000
164.287	46.347	20.671	1.000000000
161.635	44.128	-22.900	1.000000000
161.635	41.322	-18.039	1.000000000
161.635	4.835	-13.178	1.000000000
161.635	10.449	-13.178	1.000000000
161.635	16.062	-13.178	1.000000000
161.635	44.128	-13.178	1.000000000
161.635	-3.584	-8.316	1.000000000
161.635	2.029	-8.316	1.000000000
161.635	7.642	-8.316	1.000000000
161.635	13.255	-8.316	1.000000000
161.635	18.869	-8.316	1.000000000
161.635	41.322	-8.316	1.000000000
161.635	46.935	-8.316	1.000000000
161.635	-0.778	-3.455	1.000000000
161.635	4.835	-3.455	1.000000000
161.635	10.449	-3.455	1.000000000
161.635	16.062	-3.455	1.000000000
161.635	21.675	-3.455	1.000000000
161.635	38.515	-3.455	1.000000000
161.635	44.128	-3.455	1.000000000
161.635	2.029	1.406	1.000000000
161.635	7.642	1.406	1.000000000
161.635	13.255	1.406	1.000000000
161.635	18.869	1.406	1.000000000
161.635	41.322	1.406	1.000000000
161.635	46.935	1.406	1.000000000
161.635	4.835	6.267	1.000000000
161.635	10.449	6.267	1.000000000
161.635	16.062	6.267	1.000000000
161.635	44.128	6.267	1.000000000
161.635	-3.584	11.129	1.000000000
161.635	46.935	11.129	1.000000000
161.635	-0.778	15.990	1.000000000
161.635	44.128	15.990	1.000000000
161.635	46.935	20.851	1.000000000
161.635	44.128	25.712	1.000000000
161.635	46.935	30.573	1.000000000
158.993	41.819	-28.163	1.000000000
158.993	38.979	-23.244	1.000000000
158.993	13.421	-18.326	1.000000000
158.993	41.819	-18.326	1.000000000
158.993	-0.778	-13.407	1.000000000
158.993	4.902	-13.407	1.000000000
158.993	10.581	-13.407	1.000000000
158.993	16.261	-13.407	1.000000000
158.993	44.659	-13.407	1.000000000
158.993	-9.297	-8.489	1.000000000
158.993	-3.618	-8.489	1.000000000
158.993	2.062	-8.489	1.000000000
158.993	7.741	-8.489	1.000000000
158.993	13.421	-8.489	1.000000000
158.993	19.101	-8.489	1.000000000
158.993	41.819	-8.489	1.000000000
158.993	47.498	-8.489	1.000000000
158.993	-6.457	-3.570	1.000000000
158.993	-0.778	-3.570	1.000000000
158.993	4.902	-3.570	1.000000000
158.993	10.581	-3.570	1.000000000
158.993	16.261	-3.570	1.000000000
158.993	21.940	-3.570	1.000000000
158.993	38.979	-3.570	1.000000000
158.993	44.659	-3.570	1.000000000
158.993	-9.297	1.349	1.000000000
158.993	-3.618	1.349	1.000000000
158.993	2.062	1.349	1.000000000
158.993	7.741	1.349	1.000000000
158.993	13.421	1.349	1.000000000
158.993	19.101	1.349	1.000000000
158.993	41.819	1.349	1.000000000
158.993	-46.214	6.267	1.000000000
158.993	-6.457	6.267	1.000000000
158.993	-0.778	6.267	1.000000000
158.993	4.902	6.267	1.000000000
158.993	10.581	6.267	1.000000000
158.993	16.261	6.267	1.000000000
158.993	44.659	6.267	1.000000000
158.993	-3.618	11.186	1.000000000
158.993	2.062	11.186	1.000000000
158.993	7.741	11.186	1.000000000
158.993	13.421	11.186	1.000000000
158.993	41.819	11.186	1.000000000
158.993	-6.457	16.105	1.000000000
158.993	-0.778	16.105	1.000000000
158.993	4.902	16.105	1.000000000
158.993	38.979	16.105	1.000000000
158.993	44.659	16.105	1.000000000
158.993	-3.618	21.023	1.000000000
158.993	41.819	21.023	1.000000000
158.993	47.498	21.023	1.000000000
158.993	44.659	25.942	1.000000000
158.993	41.819	30.861	1.000000000
158.993	19.101	40.698	1.000000000
158.993	24.780	40.698	1.000000000
158.993	21.940	45.616	1.000000000
156.374	-26.631	-38.511	1.000000000
156.374	-20.886	-38.511	1.000000000
156.374	-15.141	-38.511	1.000000000
156.374	-9.395	-38.511	1.000000000
156.374	-3.650	-38.511	1.000000000
156.374	2.095	-38.511	1.000000000
156.374	-23.758	-33.536	1.000000000
156.374	-18.013	-33.536	1.000000000
156.374	-12.268	-33.536	1.000000000
156.374	-6.523	-33.536	1.000000000
156.374	4.967	-23.585	1.000000000
156.374	39.438	-23.585	1.000000000
156.374	2.095	-18.610	1.000000000
156.374	7.840	-18.610	1.000000000
156.374	13.585	-18.610	1.000000000
156.374	42.310	-18.610	1.000000000
156.374	-6.523	-13.634	1.000000000
156.374	-0.778	-13.634	1.000000000
156.374	4.967	-13.634	1.000000000
156.374	10.712	-13.634	1.000000000
156.374	16.457	-13.634	1.000000000
156.374	39.438	-13.634	1.000000000
156.374	45.183	-13.634	1.000000000
156.374	-9.395	-8.659	1.000000000
156.374	-3.650	-8.659	1.000000000
156.374	2.095	-8.659	1.000000000
156.374	7.840	-8.659	1.000000000
156.374	13.585	-8.659	1.000000000
156.374	19.330	-8.659	1.000000000
156.374	42.310	-8.659	1.000000000
156.374	48.055	-8.659	1.000000000
156.374	-12.268	-3.683	1.000000000
156.374	-6.523	-3.683	1.000000000
156.374	-0.778	-3.683	1.000000000
156.374	4.967	-3.683	1.000000000
156.374	10.712	-3.683	1.000000000
156.374	16.457	-3.683	1.000000000
156.374	22.202	-3.683	1.000000000
156.374	39.438	-3.683	1.000000000
156.374	45.183	-3.683	1.000000000
156.374	-9.395	1.292	1.000000000
156.374	-3.650	1.292	1.000000000
156.374	2.095	1.292	1.000000000
156.374	7.840	1.292	1.000000000
156.374	13.585	1.292	1.000000000
156.374	19.330	1.292	1.000000000
156.374	25.075	1.292	1.000000000
156.374	36.565	1.292	1.000000000
156.374	42.310	1.292	1.000000000
156.374	-46.739	6.267	1.000000000
156.374	-12.268	6.267	1.000000000
156.374	-6.523	6.267	1.000000000
156.374	-0.778	6.267	1.000000000
156.374	4.967	6.267	1.000000000
156.374	10.712	6.267	1.000000000
156.374	16.457	6.267	1.000000000
156.374	39.438	6.267	1.000000000
156.374	45.183	6.267	1.000000000
156.374	-43.866	11.243	1.000000000
156.374	-9.395	11.243	1.000000000
156.374	-3.650	11.243	1.000000000
156.374	2.095	11.243	1.000000000
156.374	7.840	11.243	1.000000000
156.374	13.585	11.243	1.000000000
156.374	19.330	11.243	1.000000000
156.374	42.310	11.243	1.000000000
156.374	48.055	11.243	1.000000000
156.374	-12.268	16.218	1.000000000
156.374	-6.523	16.218	1.000000000
156.374	-0.778	16.218	1.000000000
156.374	4.967	16.218	1.000000000
156.374	10.712	16.218	1.000000000
156.374	39.438	16.218	1.000000000
156.374	45.183	16.218	1.000000000
156.374	-9.395	21.193	1.000000000
156.374	-3.650	21.193	1.000000000
156.374	42.310	21.193	1.000000000
156.374	39.438	26.169	1.000000000
156.374	45.183	26.169	1.000000000
156.374	42.310	31.144	1.000000000
156.374	22.202	36.120	1.000000000
156.374	19.330	41.095	1.000000000
156.374	25.075	41.095	1.000000000
156.374	22.202	46.070	1.000000000
153.711	-26.940	-36.529	1.000000000
153.711	-21.126	-36.529	1.000000000
153.711	-15.312	-36.529	1.000000000
153.711	-9.499	-36.529	1.000000000
153.711	-3.685	-36.529	1.000000000
153.711	2.129	-36.529	1.000000000
153.711	37.012	-26.459	1.000000000
153.711	5.036	-21.424	1.000000000
153.711	10.850	-21.424	1.000000000
153.711	39.919	-21.424	1.000000000
153.711	45.732	-21.424	1.000000000
153.711	-15.312	-16.390	1.000000000
153.711	-9.499	-16.390	1.000000000
153.711	-3.685	-16.390	1.000000000
153.711	2.129	-16.390	1.000000000
153.711	7.943	-16.390	1.000000000
153.711	13.757	-16.390	1.000000000
153.711	19.570	-16.390	1.000000000
153.711	37.012	-16.390	1.000000000
153.711	42.825	-16.390	1.000000000
153.711	-12.405	-11.355	1.000000000
153.711	-6.592	-11.355	1.000000000
153.711	-0.778	-11.355	1.000000000
153.711	5.036	-11.355	1.000000000
153.711	10.850	-11.355	1.000000000
153.711	16.663	-11.355	1.000000000
153.711	22.477	-11.355	1.000000000
153.711	39.919	-11.355	1.000000000
153.711	45.732	-11.355	1.000000000
153.711	-9.499	-6.320	1.000000000
153.711	-3.685	-6.320	1.000000000
153.711	2.129	-6.320	1.000000000
153.711	7.943	-6.320	1.000000000
153.711	13.757	-6.320	1.000000000
153.711	19.570	-6.320	1.000000000
153.711	25.384	-6.320	1.000000000
153.711	37.012	-6.320	1.000000000
153.711	42.825	-6.320	1.000000000
153.711	-47.288	-1.285	1.000000000
153.711	-12.405	-1.285	1.000000000
153.711	-6.592	-1.285	1.000000000
153.711	-0.778	-1.285	1.000000000
153.711	5.036	-1.285	1.000000000
153.711	10.850	-1.285	1.000000000
153.711	16.663	-1.285	1.000000000
153.711	22.477	-1.285	1.000000000
153.711	39.919	-1.285	1.000000000
153.711	45.732	-1.285	1.000000000
153.711	-44.381	3.750	1.000000000
153.711	-15.312	3.750	1.000000000
153.711	-9.499	3.750	1.000000000
153.711	-3.685	3.750	1.000000000
153.711	2.129	3.750	1.000000000
153.711	7.943	3.750	1.000000000
153.711	13.757	3.750	1.000000000
153.711	19.570	3.750	1.000000000
153.711	25.384	3.750	1.000000000
153.711	37.012	3.750	1.000000000
153.711	42.825	3.750	1.000000000
153.711	-41.474	8.785	1.000000000
153.711	-12.405	8.785	1.000000000
153.711	-6.592	8.785	1.000000000
153.711	-0.778	8.785	1.000000000
153.711	5.036	8.785	1.000000000
153.711	10.850	8.785	1.000000000
153.711	16.663	8.785	1.000000000
153.711	22.477	8.785	1.000000000
153.711	39.919	8.785	1.000000000
153.711	45.732	8.785	1.000000000
153.711	-44.381	13.820	1.000000000
153.711	-38.567	13.820	1.000000000
153.711	-15.312	13.820	1.000000000
153.711	-9.499	13.820	1.000000000
153.711	-3.685	13.820	1.000000000
153.711	2.129	13.820	1.000000000
153.711	7.943	13.820	1.000000000
153.711	13.757	13.820	1.000000000
153.711	19.570	13.820	1.000000000
153.711	37.012	13.820	1.000000000
153.711	42.825	13.820	1.000000000
153.711	-41.474	18.855	1.000000000
153.711	-12.405	18.855	1.000000000
153.711	-6.592	18.855	1.000000000
153.711	-0.778	18.855	1.000000000
153.711	5.036	18.855	1.000000000
153.711	16.663	18.855	1.000000000
153.711	39.919	18.855	1.000000000
153.711	45.732	18.855	1.000000000
153.711	37.012	23.889	1.000000000
153.711	42.825	23.889	1.000000000
153.711	16.663	28.924	1.000000000
153.711	39.919	28.924	1.000000000
153.711	45.732	28.924	1.000000000
153.711	19.570	33.959	1.000000000
153.711	42.825	33.959	1.000000000
153.711	16.663	38.994	1.000000000
153.711	22.477	38.994	1.000000000
153.711	28.291	38.994	1.000000000
153.711	19.570	44.029	1.000000000
153.711	25.384	44.029	1.000000000
153.711	16.663	49.064	1.000000000
153.711	22.477	49.064	1.000000000
152.361	-30.022	-36.787	1.000000000
152.361	-24.173	-36.787	1.000000000
152.361	-18.324	-36.787	1.000000000
152.361	-12.475	-36.787	1.000000000
152.361	-6.627	-36.787	1.000000000
152.361	-0.778	-36.787	1.000000000
152.361	5.071	-36.787	1.000000000
152.361	-9.551	-31.722	1.000000000
152.361	40.164	-26.656	1.000000000
152.361	2.147	-21.591	1.000000000
152.361	7.995	-21.591	1.000000000
152.361	13.844	-21.591	1.000000000
152.361	37.239	-21.591	1.000000000
152.361	43.088	-21.591	1.000000000
152.361	-18.324	-16.526	1.000000000
152.361	-12.475	-16.526	1.000000000
152.361	-6.627	-16.526	1.000000000
152.361	-0.778	-16.526	1.000000000
152.361	5.071	-16.526	1.000000000
152.361	10.920	-16.526	1.000000000
152.361	16.768	-16.526	1.000000000
152.361	40.164	-16.526	1.000000000
152.361	46.012	-16.526	1.000000000
152.361	-15.400	-11.461	1.000000000
152.361	-9.551	-11.461	1.000000000
152.361	-3.702	-11.461	1.000000000
152.361	2.147	-11.461	1.000000000
152.361	7.995	-11.461	1.000000000
152.361	13.844	-11.461	1.000000000
152.361	19.693	-11.461	1.000000000
152.361	37.239	-11.461	1.000000000
152.361	43.088	-11.461	1.000000000
152.361	-12.475	-6.396	1.000000000
152.361	-6.627	-6.396	1.000000000
152.361	-0.778	-6.396	1.000000000
152.361	5.071	-6.396	1.000000000
152.361	10.920	-6.396	1.000000000
152.361	16.768	-6.396	1.000000000
152.361	22.617	-6.396	1.000000000
152.361	28.466	-6.396	1.000000000
152.361	40.164	-6.396	1.000000000
152.361	46.012	-6.396	1.000000000
152.361	-44.644	-1.330	1.000000000
152.361	-9.551	-1.330	1.000000000
152.361	-3.702	-1.330	1.000000000
152.361	2.147	-1.330	1.000000000
152.361	7.995	-1.330	1.000000000
152.361	13.844	-1.330	1.000000000
152.361	19.693	-1.330	1.000000000
152.361	25.542	-1.330	1.000000000
152.361	31.390	-1.330	1.000000000
152.361	37.239	-1.330	1.000000000
152.361	43.088	-1.330	1.000000000
152.361	-41.719	3.735	1.000000000
152.361	-12.475	3.735	1.000000000
152.361	-6.627	3.735	1.000000000
152.361	-0.778	3.735	1.000000000
152.361	5.071	3.735	1.000000000
152.361	10.920	3.735	1.000000000
152.361	16.768	3.735	1.000000000
152.361	22.617	3.735	1.000000000
152.361	28.466	3.735	1.000000000
152.361	40.164	3.735	1.000000000
152.361	46.012	3.735	1.000000000
152.361	-15.400	8.800	1.000000000
152.361	-9.551	8.800	1.000000000
152.361	-3.702	8.800	1.000000000
152.361	2.147	8.800	1.000000000
152.361	7.995	8.800	1.000000000
152.361	13.844	8.800	1.000000000
152.361	19.693	8.800	1.000000000
152.361	25.542	8.800	1.000000000
152.361	37.239	8.800	1.000000000
152.361	43.088	8.800	1.000000000
152.361	-41.719	13.865	1.000000000
152.361	-12.475	13.865	1.000000000
152.361	-6.627	13.865	1.000000000
152.361	-0.778	13.865	1.000000000
152.361	5.071	13.865	1.000000000
152.361	10.920	13.865	1.000000000
152.361	16.768	13.865	1.000000000
152.361	22.617	13.865	1.000000000
152.361	28.466	13.865	1.000000000
152.361	34.315	13.865	1.000000000
152.361	40.164	13.865	1.000000000
152.361	46.012	13.865	1.000000000
152.361	-44.644	18.930	1.000000000
152.361	-38.795	18.930	1.000000000
152.361	-9.551	18.930	1.000000000
152.361	-3.702	18.930	1.000000000
152.361	2.147	18.930	1.000000000
152.361	7.995	18.930	1.000000000
152.361	13.844	18.930	1.000000000
152.361	19.693	18.930	1.000000000
152.361	37.239	18.930	1.000000000
152.361	43.088	18.930	1.000000000
152.361	-41.719	23.996	1.000000000
152.361	-0.778	23.996	1.000000000
152.361	16.768	23.996	1.000000000
152.361	40.164	23.996	1.000000000
152.361	46.012	23.996	1.000000000
152.361	37.239	29.061	1.000000000
152.361	43.088	29.061	1.000000000
152.361	-41.719	34.126	1.000000000
152.361	16.768	34.126	1.000000000
152.361	22.617	34.126	1.000000000
152.361	40.164	34.126	1.000000000
152.361	-38.795	39.191	1.000000000
152.361	19.693	39.191	1.000000000
152.361	25.542	39.191	1.000000000
152.361	31.390	39.191	1.000000000
152.361	-35.871	44.256	1.000000000
152.361	16.768	44.256	1.000000000
152.361	22.617	44.256	1.000000000
152.361	28.466	44.256	1.000000000
152.361	19.693	49.321	1.000000000
152.361	25.542	49.321	1.000000000
149.624	-30.407	-37.354	1.000000000
149.624	-24.481	-37.354	1.000000000
149.624	-18.555	-37.354	1.000000000
149.624	-12.630	-37.354	1.000000000
149.624	-6.704	-37.354	1.000000000
149.624	-0.778	-37.354	1.000000000
149.624	5.148	-37.354	1.000000000
149.624	-21.518	-32.222	1.000000000
149.624	-15.592	-32.222	1.000000000
149.624	-9.667	-32.222	1.000000000
149.624	37.740	-32.222	1.000000000
149.624	40.703	-27.090	1.000000000
149.624	-9.667	-21.958	1.000000000
149.624	-3.741	-21.958	1.000000000
149.624	2.185	-21.958	1.000000000
149.624	8.111	-21.958	1.000000000
149.624	14.037	-21.958	1.000000000
149.624	37.740	-21.958	1.000000000
149.624	43.666	-21.958	1.000000000
149.624	-48.185	-16.826	1.000000000
149.624	-42.259	-16.826	1.000000000
149.624	-36.333	-16.826	1.000000000
149.624	-30.407	-16.826	1.000000000
149.624	-18.555	-16.826	1.000000000
149.624	-12.630	-16.826	1.000000000
149.624	-6.704	-16.826	1.000000000
149.624	-0.778	-16.826	1.000000000
149.624	5.148	-16.826	1.000000000
149.624	11.074	-16.826	1.000000000
149.624	17.000	-16.826	1.000000000
149.624	22.926	-16.826	1.000000000
149.624	34.777	-16.826	1.000000000
149.624	40.703	-16.826	1.000000000
149.624	46.629	-16.826	1.000000000
149.624	-45.222	-11.694	1.000000000
149.624	-39.296	-11.694	1.000000000
149.624	-21.518	-11.694	1.000000000
149.624	-15.592	-11.694	1.000000000
149.624	-9.667	-11.694	1.000000000
149.624	-3.741	-11.694	1.000000000
149.624	2.185	-11.694	1.000000000
149.624	8.111	-11.694	1.000000000
149.624	14.037	-11.694	1.000000000
149.624	19.963	-11.694	1.000000000
149.624	25.888	-11.694	1.000000000
149.624	37.740	-11.694	1.000000000
149.624	43.666	-11.694	1.000000000
149.624	-42.259	-6.562	1.000000000
149.624	-18.555	-6.562	1.000000000
149.624	-12.630	-6.562	1.000000000
149.624	-6.704	-6.562	1.000000000
149.624	-0.778	-6.562	1.000000000
149.624	5.148	-6.562	1.000000000
149.624	11.074	-6.562	1.000000000
149.624	17.000	-6.562	1.000000000
149.624	22.926	-6.562	1.000000000
149.624	28.851	-6.562	1.000000000
149.624	34.777	-6.562	1.000000000
149.624	40.703	-6.562	1.000000000
149.624	46.629	-6.562	1.000000000
149.624	-45.222	-1.431	1.000000000
149.624	-15.592	-1.431	1.000000000
149.624	-9.667	-1.431	1.000000000
149.624	-3.741	-1.431	1.000000000
149.624	2.185	-1.431	1.000000000
149.624	8.111	-1.431	1.000000000
149.624	14.037	-1.431	1.000000000
149.624	19.963	-1.431	1.000000000
149.624	25.888	-1.431	1.000000000
149.624	31.814	-1.431	1.000000000
149.624	37.740	-1.431	1.000000000
149.624	43.666	-1.431	1.000000000
149.624	-42.259	3.701	1.000000000
149.624	-12.630	3.701	1.000000000
149.624	-6.704	3.701	1.000000000
149.624	-0.778	3.701	1.000000000
149.624	5.148	3.701	1.000000000
149.624	11.074	3.701	1.000000000
149.624	17.000	3.701	1.000000000
149.624	22.926	3.701	1.000000000
149.624	28.851	3.701	1.000000000
149.624	34.777	3.701	1.000000000
149.624	40.703	3.701	1.000000000
149.624	46.629	3.701	1.000000000
149.624	-39.296	8.833	1.000000000
149.624	-15.592	8.833	1.000000000
149.624	-9.667	8.833	1.000000000
149.624	-3.741	8.833	1.000000000
149.624	2.185	8.833	1.000000000
149.624	8.111	8.833	1.000000000
149.624	14.037	8.833	1.000000000
149.624	19.963	8.833	1.000000000
149.624	25.888	8.833	1.000000000
149.624	31.814	8.833	1.000000000
149.624	37.740	8.833	1.000000000
149.624	43.666	8.833	1.000000000
149.624	-36.333	13.965	1.000000000
149.624	-12.630	13.965	1.000000000
149.624	-6.704	13.965	1.000000000
149.624	-0.778	13.965	1.000000000
149.624	5.148	13.965	1.000000000
149.624	11.074	13.965	1.000000000
149.624	17.000	13.965	1.000000000
149.624	22.926	13.965	1.000000000
149.624	28.851	13.965	1.000000000
149.624	34.777	13.965	1.000000000
149.624	40.703	13.965	1.000000000
149.624	46.629	13.965	1.000000000
149.624	-39.296	19.097	1.000000000
149.624	-33.370	19.097	1.000000000
149.624	-15.592	19.097	1.000000000
149.624	-9.667	19.097	1.000000000
149.624	-3.741	19.097	1.000000000
149.624	2.185	19.097	1.000000000
149.624	8.111	19.097	1.000000000
149.624	14.037	19.097	1.000000000
149.624	19.963	19.097	1.000000000
149.624	25.888	19.097	1.000000000
149.624	31.814	19.097	1.000000000
149.624	37.740	19.097	1.000000000
149.624	43.666	19.097	1.000000000
149.624	-42.259	24.229	1.000000000
149.624	-36.333	24.229	1.000000000
149.624	-6.704	24.229	1.000000000
149.624	-0.778	24.229	1.000000000
149.624	5.148	24.229	1.000000000
149.624	17.000	24.229	1.000000000
149.624	40.703	24.229	1.000000000
149.624	46.629	24.229	1.000000000
149.624	-39.296	29.361	1.000000000
149.624	14.037	29.361	1.000000000
149.624	19.963	29.361	1.000000000
149.624	31.814	29.361	1.000000000
149.624	37.740	29.361	1.000000000
149.624	43.666	29.361	1.000000000
149.624	17.000	34.493	1.000000000
149.624	22.926	34.493	1.000000000
149.624	28.851	34.493	1.000000000
149.624	34.777	34.493	1.000000000
149.624	40.703	34.493	1.000000000
149.624	14.037	39.625	1.000000000
149.624	19.963	39.625	1.000000000
149.624	25.888	39.625	1.000000000
149.624	31.814	39.625	1.000000000
149.624	-30.407	44.757	1.000000000
149.624	17.000	44.757	1.000000000
149.624	22.926	44.757	1.000000000
149.624	28.851	44.757	1.000000000
149.624	19.963	49.889	1.000000000
149.624	25.888	49.889	1.000000000
146.845	-36.812	-37.942	1.000000000
146.845	-30.806	-37.942	1.000000000
146.845	-24.801	-37.942	1.000000000
146.845	-18.795	-37.942	1.000000000
146.845	-12.789	-37.942	1.000000000
146.845	-6.784	-37.942	1.000000000
146.845	-0.778	-37.942	1.000000000
146.845	5.228	-37.942	1.000000000
146.845	11.234	-37.942	1.000000000
146.845	-33.809	-32.741	1.000000000
146.845	-27.803	-32.741	1.000000000
146.845	-21.798	-32.741	1.000000000
146.845	-15.792	-32.741	1.000000000
146.845	-9.786	-32.741	1.000000000
146.845	-3.781	-32.741	1.000000000
146.845	2.225	-32.741	1.000000000
146.845	-24.801	-27.540	1.000000000
146.845	-18.795	-27.540	1.000000000
146.845	-12.789	-27.540	1.000000000
146.845	17.239	-27.540	1.000000000
146.845	35.256	-27.540	1.000000000
146.845	-45.821	-22.339	1.000000000
146.845	-39.815	-22.339	1.000000000
146.845	-33.809	-22.339	1.000000000
146.845	-27.803	-22.339	1.000000000
146.845	-21.798	-22.339	1.000000000
146.845	-15.792	-22.339	1.000000000
146.845	-9.786	-22.339	1.000000000
146.845	-3.781	-22.339	1.000000000
146.845	2.225	-22.339	1.000000000
146.845	8.231	-22.339	1.000000000
146.845	14.236	-22.339	1.000000000
146.845	20.242	-22.339	1.000000000
146.845	26.248	-22.339	1.000000000
146.845	38.259	-22.339	1.000000000
146.845	44.265	-22.339	1.000000000
146.845	-42.818	-17.138	1.000000000
146.845	-36.812	-17.138	1.000000000
146.845	-30.806	-17.138	1.000000000
146.845	-24.801	-17.138	1.000000000
146.845	-18.795	-17.138	1.000000000
146.845	-12.789	-17.138	1.000000000
146.845	-6.784	-17.138	1.000000000
146.845	-0.778	-17.138	1.000000000
146.845	5.228	-17.138	1.000000000
146.845	11.234	-17.138	1.000000000
146.845	17.239	-17.138	1.000000000
146.845	23.245	-17.138	1.000000000
146.845	35.256	-17.138	1.000000000
146.845	41.262	-17.138	1.000000000
146.845	-39.815	-11.936	1.000000000
146.845	-33.809	-11.936	1.000000000
146.845	-27.803	-11.936	1.000000000
146.845	-21.798	-11.936	1.000000000
146.845	-15.792	-11.936	1.000000000
146.845	-9.786	-11.936	1.000000000
146.845	-3.781	-11.936	1.000000000
146.845	2.225	-11.936	1.000000000
146.845	8.231	-11.936	1.000000000
146.845	14.236	-11.936	1.000000000
146.845	20.242	-11.936	1.000000000
146.845	26.248	-11.936	1.000000000
146.845	32.253	-11.936	1.000000000
146.845	38.259	-11.936	1.000000000
146.845	44.265	-11.936	1.000000000
146.845	-42.818	-6.735	1.000000000
146.845	-36.812	-6.735	1.000000000
146.845	-30.806	-6.735	1.000000000
146.845	-24.801	-6.735	1.000000000
146.845	-18.795	-6.735	1.000000000
146.845	-12.789	-6.735	1.000000000
146.845	-6.784	-6.735	1.000000000
146.845	-0.778	-6.735	1.000000000
146.845	5.228	-6.735	1.000000000
146.845	11.234	-6.735	1.000000000
146.845	17.239	-6.735	1.000000000
146.845	23.245	-6.735	1.000000000
146.845	29.251	-6.735	1.000000000
146.845	35.256	-6.735	1.000000000
146.845	41.262	-6.735	1.000000000
146.845	-39.815	-1.534	1.000000000
146.845	-33.809	-1.534	1.000000000
146.845	-15.792	-1.534	1.000000000
146.845	-9.786	-1.534	1.000000000
146.845	-3.781	-1.534	1.000000000
146.845	2.225	-1.534	1.000000000
146.845	8.231	-1.534	1.000000000
146.845	14.236	-1.534	1.000000000
146.845	20.242	-1.534	1.000000000
146.845	26.248	-1.534	1.000000000
146.845	32.253	-1.534	1.000000000
146.845	38.259	-1.534	1.000000000
146.845	44.265	-1.534	1.000000000
146.845	-42.818	3.667	1.000000000
146.845	-36.812	3.667	1.000000000
146.845	-12.789	3.667	1.000000000
146.845	-6.784	3.667	1.000000000
146.845	-0.778	3.667	1.000000000
146.845	5.228	3.667	1.000000000
146.845	11.234	3.667	1.000000000
146.845	17.239	3.667	1.000000000
146.845	23.245	3.667	1.000000000
146.845	29.251	3.667	1.000000000
146.845	35.256	3.667	1.000000000
146.845	41.262	3.667	1.000000000
146.845	47.268	3.667	1.000000000
146.845	-39.815	8.868	1.000000000
146.845	-33.809	8.868	1.000000000
146.845	-15.792	8.868	1.000000000
146.845	-9.786	8.868	1.000000000
146.845	-3.781	8.868	1.000000000
146.845	2.225	8.868	1.000000000
146.845	8.231	8.868	1.000000000
146.845	14.236	8.868	1.000000000
146.845	20.242	8.868	1.000000000
146.845	26.248	8.868	1.000000000
146.845	32.253	8.868	1.000000000
146.845	38.259	8.868	1.000000000
146.845	44.265	8.868	1.000000000
146.845	-36.812	14.069	1.000000000
146.845	-30.806	14.069	1.000000000
146.845	-24.801	14.069	1.000000000
146.845	-12.789	14.069	1.000000000
146.845	-6.784	14.069	1.000000000
146.845	-0.778	14.069	1.000000000
146.845	5.228	14.069	1.000000000
146.845	11.234	14.069	1.000000000
146.845	17.239	14.069	1.000000000
146.845	23.245	14.069	1.000000000
146.845	29.251	14.069	1.000000000
146.845	35.256	14.069	1.000000000
146.845	41.262	14.069	1.000000000
146.845	47.268	14.069	1.000000000
146.845	-33.809	19.270	1.000000000
146.845	-27.803	19.270	1.000000000
146.845	-15.792	19.270	1.000000000
146.845	-9.786	19.270	1.000000000
146.845	-3.781	19.270	1.000000000
146.845	2.225	19.270	1.000000000
146.845	8.231	19.270	1.000000000
146.845	14.236	19.270	1.000000000
146.845	20.242	19.270	1.000000000
146.845	26.248	19.270	1.000000000
146.845	32.253	19.270	1.000000000
146.845	38.259	19.270	1.000000000
146.845	44.265	19.270	1.000000000
146.845	-36.812	24.471	1.000000000
146.845	-30.806	24.471	1.000000000
146.845	-6.784	24.471	1.000000000
146.845	-0.778	24.471	1.000000000
146.845	5.228	24.471	1.000000000
146.845	11.234	24.471	1.000000000
146.845	17.239	24.471	1.000000000
146.845	23.245	24.471	1.000000000
146.845	29.251	24.471	1.000000000
146.845	35.256	24.471	1.000000000
146.845	41.262	24.471	1.000000000
146.845	47.268	24.471	1.000000000
146.845	-33.809	29.672	1.000000000
146.845	14.236	29.672	1.000000000
146.845	20.242	29.672	1.000000000
146.845	26.248	29.672	1.000000000
146.845	32.253	29.672	1.000000000
146.845	38.259	29.672	1.000000000
146.845	44.265	29.672	1.000000000
146.845	-36.812	34.873	1.000000000
146.845	-30.806	34.873	1.000000000
146.845	11.234	34.873	1.000000000
146.845	17.239	34.873	1.000000000
146.845	23.245	34.873	1.000000000
146.845	29.251	34.873	1.000000000
146.845	35.256	34.873	1.000000000
146.845	41.262	34.873	1.000000000
146.845	-33.809	40.074	1.000000000
146.845	14.236	40.074	1.000000000
146.845	20.242	40.074	1.000000000
146.845	26.248	40.074	1.000000000
146.845	32.253	40.074	1.000000000
146.845	-30.806	45.275	1.000000000
146.845	17.239	45.275	1.000000000
146.845	23.245	45.275	1.000000000
146.845	29.251	45.275	1.000000000
146.845	20.242	50.477	1.000000000
144.096	-37.318	-38.563	1.000000000
144.096	-31.228	-38.563	1.000000000
144.096	-25.138	-38.563	1.000000000
144.096	-19.048	-38.563	1.000000000
144.096	-12.958	-38.563	1.000000000
144.096	-6.868	-38.563	1.000000000
144.096	-0.778	-38.563	1.000000000
144.096	5.312	-38.563	1.000000000
144.096	11.402	-38.563	1.000000000
144.096	17.492	-38.563	1.000000000
144.096	-34.273	-33.289	1.000000000
144.096	-28.183	-33.289	1.000000000
144.096	-22.093	-33.289	1.000000000
144.096	-16.003	-33.289	1.000000000
144.096	-9.913	-33.289	1.000000000
144.096	-3.823	-33.289	1.000000000
144.096	2.267	-33.289	1.000000000
144.096	8.357	-33.289	1.000000000
144.096	20.537	-33.289	1.000000000
144.096	32.718	-33.289	1.000000000
144.096	-49.499	-28.015	1.000000000
144.096	-37.318	-28.015	1.000000000
144.096	-31.228	-28.015	1.000000000
144.096	-25.138	-28.015	1.000000000
144.096	-19.048	-28.015	1.000000000
144.096	-12.958	-28.015	1.000000000
144.096	-6.868	-28.015	1.000000000
144.096	11.402	-28.015	1.000000000
144.096	17.492	-28.015	1.000000000
144.096	23.582	-28.015	1.000000000
144.096	29.673	-28.015	1.000000000
144.096	35.763	-28.015	1.000000000
144.096	41.853	-28.015	1.000000000
144.096	-34.273	-22.741	1.000000000
144.096	-28.183	-22.741	1.000000000
144.096	-22.093	-22.741	1.000000000
144.096	-16.003	-22.741	1.000000000
144.096	-9.913	-22.741	1.000000000
144.096	-3.823	-22.741	1.000000000
144.096	2.267	-22.741	1.000000000
144.096	8.357	-22.741	1.000000000
144.096	14.447	-22.741	1.000000000
144.096	20.537	-22.741	1.000000000
144.096	26.628	-22.741	1.000000000
144.096	32.718	-22.741	1.000000000
144.096	38.808	-22.741	1.000000000
144.096	-37.318	-17.466	1.000000000
144.096	-31.228	-17.466	1.000000000
144.096	-25.138	-17.466	1.000000000
144.096	-19.048	-17.466	1.000000000
144.096	-12.958	-17.466	1.000000000
144.096	-6.868	-17.466	1.000000000
144.096	-0.778	-17.466	1.000000000
144.096	5.312	-17.466	1.000000000
144.096	11.402	-17.466	1.000000000
144.096	17.492	-17.466	1.000000000
144.096	23.582	-17.466	1.000000000
144.096	29.673	-17.466	1.000000000
144.096	35.763	-17.466	1.000000000
144.096	41.853	-17.466	1.000000000
144.096	-40.363	-12.192	1.000000000
144.096	-34.273	-12.192	1.000000000
144.096	-28.183	-12.192	1.000000000
144.096	-22.093	-12.192	1.000000000
144.096	-16.003	-12.192	1.000000000
144.096	-9.913	-12.192	1.000000000
144.096	-3.823	-12.192	1.000000000
144.096	2.267	-12.192	1.000000000
144.096	8.357	-12.192	1.000000000
144.096	14.447	-12.192	1.000000000
144.096	20.537	-12.192	1.000000000
144.096	26.628	-12.192	1.000000000
144.096	32.718	-12.192	1.000000000
144.096	38.808	-12.192	1.000000000
144.096	44.898	-12.192	1.000000000
144.096	-37.318	-6.918	1.000000000
144.096	-31.228	-6.918	1.000000000
144.096	-25.138	-6.918	1.000000000
144.096	-19.048	-6.918	1.000000000
144.096	-12.958	-6.918	1.000000000
144.096	-6.868	-6.918	1.000000000
144.096	-0.778	-6.918	1.000000000
144.096	5.312	-6.918	1.000000000
144.096	11.402	-6.918	1.000000000
144.096	17.492	-6.918	1.000000000
144.096	23.582	-6.918	1.000000000
144.096	29.673	-6.918	1.000000000
144.096	35.763	-6.918	1.000000000
144.096	41.853	-6.918	1.000000000
144.096	47.943	-6.918	1.000000000
144.096	-40.363	-1.644	1.000000000
144.096	-34.273	-1.644	1.000000000
144.096	-28.183	-1.644	1.000000000
144.096	-22.093	-1.644	1.000000000
144.096	-16.003	-1.644	1.000000000
144.096	-9.913	-1.644	1.000000000
144.096	-3.823	-1.644	1.000000000
144.096	2.267	-1.644	1.000000000
144.096	8.357	-1.644	1.000000000
144.096	14.447	-1.644	1.000000000
144.096	20.537	-1.644	1.000000000
144.096	26.628	-1.644	1.000000000
144.096	32.718	-1.644	1.000000000
144.096	38.808	-1.644	1.000000000
144.096	44.898	-1.644	1.000000000
144.096	-37.318	3.630	1.000000000
144.096	-31.228	3.630	1.000000000
144.096	-25.138	3.630	1.000000000
144.096	-19.048	3.630	1.000000000
144.096	-12.958	3.630	1.000000000
144.096	-6.868	3.630	1.000000000
144.096	-0.778	3.630	1.000000000
144.096	5.312	3.630	1.000000000
144.096	11.402	3.630	1.000000000
144.096	17.492	3.630	1.000000000
144.096	23.582	3.630	1.000000000
144.096	29.673	3.630	1.000000000
144.096	35.763	3.630	1.000000000
144.096	41.853	3.630	1.000000000
144.096	47.943	3.630	1.000000000
144.096	-46.454	8.904	1.000000000
144.096	-34.273	8.904	1.000000000
144.096	-28.183	8.904	1.000000000
144.096	-22.093	8.904	1.000000000
144.096	-16.003	8.904	1.000000000
144.096	-9.913	8.904	1.000000000
144.096	-3.823	8.904	1.000000000
144.096	2.267	8.904	1.000000000
144.096	8.357	8.904	1.000000000
144.096	14.447	8.904	1.000000000
144.096	20.537	8.904	1.000000000
144.096	26.628	8.904	1.000000000
144.096	32.718	8.904	1.000000000
144.096	38.808	8.904	1.000000000
144.096	44.898	8.904	1.000000000
144.096	-31.228	14.179	1.000000000
144.096	-25.138	14.179	1.000000000
144.096	-19.048	14.179	1.000000000
144.096	-12.958	14.179	1.000000000
144.096	-6.868	14.179	1.000000000
144.096	-0.778	14.179	1.000000000
144.096	5.312	14.179	1.000000000
144.096	11.402	14.179	1.000000000
144.096	17.492	14.179	1.000000000
144.096	23.582	14.179	1.000000000
144.096	29.673	14.179	1.000000000
144.096	35.763	14.179	1.000000000
144.096	41.853	14.179	1.000000000
144.096	-28.183	19.453	1.000000000
144.096	-22.093	19.453	1.000000000
144.096	-16.003	19.453	1.000000000
144.096	-9.913	19.453	1.000000000
144.096	-3.823	19.453	1.000000000
144.096	2.267	19.453	1.000000000
144.096	8.357	19.453	1.000000000
144.096	14.447	19.453	1.000000000
144.096	20.537	19.453	1.000000000
144.096	26.628	19.453	1.000000000
144.096	32.718	19.453	1.000000000
144.096	38.808	19.453	1.000000000
144.096	44.898	19.453	1.000000000
144.096	-31.228	24.727	1.000000000
144.096	-25.138	24.727	1.000000000
144.096	-19.048	24.727	1.000000000
144.096	-12.958	24.727	1.000000000
144.096	-6.868	24.727	1.000000000
144.096	-0.778	24.727	1.000000000
144.096	5.312	24.727	1.000000000
144.096	11.402	24.727	1.000000000
144.096	17.492	24.727	1.000000000
144.096	23.582	24.727	1.000000000
144.096	29.673	24.727	1.000000000
144.096	35.763	24.727	1.000000000
144.096	41.853	24.727	1.000000000
144.096	47.943	24.727	1.000000000
144.096	-34.273	30.001	1.000000000
144.096	-28.183	30.001	1.000000000
144.096	-22.093	30.001	1.000000000
144.096	-16.003	30.001	1.000000000
144.096	-9.913	30.001	1.000000000
144.096	8.357	30.001	1.000000000
144.096	14.447	30.001	1.000000000
144.096	20.537	30.001	1.000000000
144.096	26.628	30.001	1.000000000
144.096	32.718	30.001	1.000000000
144.096	38.808	30.001	1.000000000
144.096	44.898	30.001	1.000000000
144.096	-31.228	35.275	1.000000000
144.096	-25.138	35.275	1.000000000
144.096	11.402	35.275	1.000000000
144.096	17.492	35.275	1.000000000
144.096	23.582	35.275	1.000000000
144.096	29.673	35.275	1.000000000
144.096	35.763	35.275	1.000000000
144.096	41.853	35.275	1.000000000
144.096	-28.183	40.549	1.000000000
144.096	-22.093	40.549	1.000000000
144.096	14.447	40.549	1.000000000
144.096	20.537	40.549	1.000000000
144.096	26.628	40.549	1.000000000
144.096	32.718	40.549	1.000000000
144.096	-25.138	45.824	1.000000000
144.096	17.492	45.824	1.000000000
144.096	23.582	45.824	1.000000000
144.096	29.673	45.824	1.000000000
144.096	-16.003	51.098	1.000000000
144.096	14.447	51.098	1.000000000
141.287	-25.493	-39.216	1.000000000
141.287	-19.314	-39.216	1.000000000
141.287	-13.136	-39.216	1.000000000
141.287	-6.957	-39.216	1.000000000
141.287	-0.778	-39.216	1.000000000
141.287	5.401	-39.216	1.000000000
141.287	11.580	-39.216	1.000000000
141.287	17.759	-39.216	1.000000000
141.287	23.937	-39.216	1.000000000
141.287	-34.761	-33.865	1.000000000
141.287	-28.583	-33.865	1.000000000
141.287	-22.404	-33.865	1.000000000
141.287	-16.225	-33.865	1.000000000
141.287	-10.046	-33.865	1.000000000
141.287	-3.867	-33.865	1.000000000
141.287	2.312	-33.865	1.000000000
141.287	8.490	-33.865	1.000000000
141.287	14.669	-33.865	1.000000000
141.287	20.848	-33.865	1.000000000
141.287	27.027	-33.865	1.000000000
141.287	-44.030	-28.514	1.000000000
141.287	-37.851	-28.514	1.000000000
141.287	-31.672	-28.514	1.000000000
141.287	-25.493	-28.514	1.000000000
141.287	-19.314	-28.514	1.000000000
141.287	-13.136	-28.514	1.000000000
141.287	-6.957	-28.514	1.000000000
141.287	-0.778	-28.514	1.000000000
141.287	5.401	-28.514	1.000000000
141.287	11.580	-28.514	1.000000000
141.287	17.759	-28.514	1.000000000
141.287	23.937	-28.514	1.000000000
141.287	30.116	-28.514	1.000000000
141.287	-34.761	-23.163	1.000000000
141.287	-28.583	-23.163	1.000000000
141.287	-22.404	-23.163	1.000000000
141.287	-16.225	-23.163	1.000000000
141.287	-10.046	-23.163	1.000000000
141.287	-3.867	-23.163	1.000000000
141.287	2.312	-23.163	1.000000000
141.287	8.490	-23.163	1.000000000
141.287	14.669	-23.163	1.000000000
141.287	20.848	-23.163	1.000000000
141.287	27.027	-23.163	1.000000000
141.287	33.206	-23.163	1.000000000
141.287	39.385	-23.163	1.000000000
141.287	-31.672	-17.812	1.000000000
141.287	-25.493	-17.812	1.000000000
141.287	-19.314	-17.812	1.000000000
141.287	-13.136	-17.812	1.000000000
141.287	-6.957	-17.812	1.000000000
141.287	-0.778	-17.812	1.000000000
141.287	5.401	-17.812	1.000000000
141.287	11.580	-17.812	1.000000000
141.287	17.759	-17.812	1.000000000
141.287	23.937	-17.812	1.000000000
141.287	30.116	-17.812	1.000000000
141.287	36.295	-17.812	1.000000000
141.287	42.474	-17.812	1.000000000
141.287	-28.583	-12.461	1.000000000
141.287	-22.404	-12.461	1.000000000
141.287	-16.225	-12.461	1.000000000
141.287	-10.046	-12.461	1.000000000
141.287	-3.867	-12.461	1.000000000
141.287	2.312	-12.461	1.000000000
141.287	8.490	-12.461	1.000000000
141.287	14.669	-12.461	1.000000000
141.287	20.848	-12.461	1.000000000
141.287	27.027	-12.461	1.000000000
141.287	33.206	-12.461	1.000000000
141.287	39.385	-12.461	1.000000000
141.287	45.563	-12.461	1.000000000
141.287	-31.672	-7.110	1.000000000
141.287	-25.493	-7.110	1.000000000
141.287	-19.314	-7.110	1.000000000
141.287	-13.136	-7.110	1.000000000
141.287	-6.957	-7.110	1.000000000
141.287	-0.778	-7.110	1.000000000
141.287	5.401	-7.110	1.000000000
141.287	11.580	-7.110	1.000000000
141.287	17.759	-7.110	1.000000000
141.287	23.937	-7.110	1.000000000
141.287	30.116	-7.110	1.000000000
141.287	36.295	-7.110	1.000000000
141.287	42.474	-7.110	1.000000000
141.287	-34.761	-1.759	1.000000000
141.287	-28.583	-1.759	1.000000000
141.287	-22.404	-1.759	1.000000000
141.287	-16.225	-1.759	1.000000000
141.287	-10.046	-1.759	1.000000000
141.287	-3.867	-1.759	1.000000000
141.287	2.312	-1.759	1.000000000
141.287	8.490	-1.759	1.000000000
141.287	14.669	-1.759	1.000000000
141.287	20.848	-1.759	1.000000000
141.287	27.027	-1.759	1.000000000
141.287	33.206	-1.759	1.000000000
141.287	39.385	-1.759	1.000000000
141.287	45.563	-1.759	1.000000000
141.287	-31.672	3.592	1.000000000
141.287	-25.493	3.592	1.000000000
141.287	-19.314	3.592	1.000000000
141.287	-13.136	3.592	1.000000000
141.287	-6.957	3.592	1.000000000
141.287	-0.778	3.592	1.000000000
141.287	5.401	3.592	1.000000000
141.287	11.580	3.592	1.000000000
141.287	17.759	3.592	1.000000000
141.287	23.937	3.592	1.000000000
141.287	30.116	3.592	1.000000000
141.287	36.295	3.592	1.000000000
141.287	42.474	3.592	1.000000000
141.287	-28.583	8.943	1.000000000
141.287	-22.404	8.943	1.000000000
141.287	-16.225	8.943	1.000000000
141.287	-10.046	8.943	1.000000000
141.287	-3.867	8.943	1.000000000
141.287	2.312	8.943	1.000000000
141.287	8.490	8.943	1.000000000
141.287	14.669	8.943	1.000000000
141.287	20.848	8.943	1.000000000
141.287	27.027	8.943	1.000000000
141.287	33.206	8.943	1.000000000
141.287	39.385	8.943	1.000000000
141.287	45.563	8.943	1.000000000
141.287	-44.030	14.294	1.000000000
141.287	-25.493	14.294	1.000000000
141.287	-19.314	14.294	1.000000000
141.287	-13.136	14.294	1.000000000
141.287	-6.957	14.294	1.000000000
141.287	-0.778	14.294	1.000000000
141.287	5.401	14.294	1.000000000
141.287	11.580	14.294	1.000000000
141.287	17.759	14.294	1.000000000
141.287	23.937	14.294	1.000000000
141.287	30.116	14.294	1.000000000
141.287	36.295	14.294	1.000000000
141.287	42.474	14.294	1.000000000
141.287	-22.404	19.645	1.000000000
141.287	-16.225	19.645	1.000000000
141.287	-10.046	19.645	1.000000000
141.287	-3.867	19.645	1.000000000
141.287	2.312	19.645	1.000000000
141.287	8.490	19.645	1.000000000
141.287	14.669	19.645	1.000000000
141.287	20.848	19.645	1.000000000
141.287	27.027	19.645	1.000000000
141.287	33.206	19.645	1.000000000
141.287	39.385	19.645	1.000000000
141.287	45.563	19.645	1.000000000
141.287	-25.493	24.996	1.000000000
141.287	-19.314	24.996	1.000000000
141.287	-13.136	24.996	1.000000000
141.287	-6.957	24.996	1.000000000
141.287	-0.778	24.996	1.000000000
141.287	5.401	24.996	1.000000000
141.287	11.580	24.996	1.000000000
141.287	17.759	24.996	1.000000000
141.287	23.937	24.996	1.000000000
141.287	30.116	24.996	1.000000000
141.287	36.295	24.996	1.000000000
141.287	42.474	24.996	1.000000000
141.287	-28.583	30.347	1.000000000
141.287	-22.404	30.347	1.000000000
141.287	-16.225	30.347	1.000000000
141.287	-10.046	30.347	1.000000000
141.287	-3.867	30.347	1.000000000
141.287	2.312	30.347	1.000000000
141.287	8.490	30.347	1.000000000
141.287	14.669	30.347	1.000000000
141.287	20.848	30.347	1.000000000
141.287	27.027	30.347	1.000000000
141.287	33.206	30.347	1.000000000
141.287	39.385	30.347	1.000000000
141.287	45.563	30.347	1.000000000
141.287	-25.493	35.698	1.000000000
141.287	-19.314	35.698	1.000000000
141.287	-0.778	35.698	1.000000000
141.287	5.401	35.698	1.000000000
141.287	11.580	35.698	1.000000000
141.287	17.759	35.698	1.000000000
141.287	23.937	35.698	1.000000000
141.287	30.116	35.698	1.000000000
141.287	36.295	35.698	1.000000000
141.287	-22.404	41.049	1.000000000
141.287	-16.225	41.049	1.000000000
141.287	8.490	41.049	1.000000000
141.287	14.669	41.049	1.000000000
141.287	20.848	41.049	1.000000000
141.287	27.027	41.049	1.000000000
141.287	33.206	41.049	1.000000000
141.287	-19.314	46.400	1.000000000
141.287	5.401	46.400	1.000000000
141.287	11.580	46.400	1.000000000
141.287	17.759	46.400	1.000000000
141.287	23.937	46.400	1.000000000
141.287	-10.046	51.751	1.000000000
141.287	2.312	51.751	1.000000000
141.287	14.669	51.751	1.000000000
141.287	20.848	51.751	1.000000000
138.310	-41.556	-37.197	1.000000000
138.310	-35.282	-37.197	1.000000000
138.310	-29.009	-37.197	1.000000000
138.310	-22.735	-37.197	1.000000000
138.310	-16.462	-37.197	1.000000000
138.310	-10.188	-37.197	1.000000000
138.310	-3.915	-37.197	1.000000000
138.310	2.359	-37.197	1.000000000
138.310	8.632	-37.197	1.000000000
138.310	14.906	-37.197	1.000000000
138.310	-38.419	-31.764	1.000000000
138.310	-32.146	-31.764	1.000000000
138.310	-25.872	-31.764	1.000000000
138.310	-19.599	-31.764	1.000000000
138.310	-13.325	-31.764	1.000000000
138.310	-7.051	-31.764	1.000000000
138.310	-0.778	-31.764	1.000000000
138.310	5.496	-31.764	1.000000000
138.310	11.769	-31.764	1.000000000
138.310	18.043	-31.764	1.000000000
138.310	-29.009	-26.331	1.000000000
138.310	-22.735	-26.331	1.000000000
138.310	-16.462	-26.331	1.000000000
138.310	-10.188	-26.331	1.000000000
138.310	-3.915	-26.331	1.000000000
138.310	2.359	-26.331	1.000000000
138.310	8.632	-26.331	1.000000000
138.310	14.906	-26.331	1.000000000
138.310	21.180	-26.331	1.000000000
138.310	40.000	-26.331	1.000000000
138.310	-25.872	-20.898	1.000000000
138.310	-19.599	-20.898	1.000000000
138.310	-13.325	-20.898	1.000000000
138.310	-7.051	-20.898	1.000000000
138.310	-0.778	-20.898	1.000000000
138.310	5.496	-20.898	1.000000000
138.310	11.769	-20.898	1.000000000
138.310	18.043	-20.898	1.000000000
138.310	36.864	-20.898	1.000000000
138.310	43.137	-20.898	1.000000000
138.310	-22.735	-15.465	1.000000000
138.310	-16.462	-15.465	1.000000000
138.310	-10.188	-15.465	1.000000000
138.310	-3.915	-15.465	1.000000000
138.310	2.359	-15.465	1.000000000
138.310	8.632	-15.465	1.000000000
138.310	14.906	-15.465	1.000000000
138.310	21.180	-15.465	1.000000000
138.310	27.453	-15.465	1.000000000
138.310	33.727	-15.465	1.000000000
138.310	40.000	-15.465	1.000000000
138.310	46.274	-15.465	1.000000000
138.310	-25.872	-10.032	1.000000000
138.310	-19.599	-10.032	1.000000000
138.310	-13.325	-10.032	1.000000000
138.310	-7.051	-10.032	1.000000000
138.310	-0.778	-10.032	1.000000000
138.310	5.496	-10.032	1.000000000
138.310	11.769	-10.032	1.000000000
138.310	18.043	-10.032	1.000000000
138.310	24.316	-10.032	1.000000000
138.310	30.590	-10.032	1.000000000
138.310	36.864	-10.032	1.000000000
138.310	43.137	-10.032	1.000000000
138.310	-29.009	-4.599	1.000000000
138.310	-22.735	-4.599	1.000000000
138.310	-16.462	-4.599	1.000000000
138.310	-10.188	-4.599	1.000000000
138.310	-3.915	-4.599	1.000000000
138.310	2.359	-4.599	1.000000000
138.310	8.632	-4.599	1.000000000
138.310	14.906	-4.599	1.000000000
138.310	21.180	-4.599	1.000000000
138.310	27.453	-4.599	1.000000000
138.310	33.727	-4.599	1.000000000
138.310	40.000	-4.599	1.000000000
138.310	46.274	-4.599	1.000000000
138.310	-44.693	0.834	1.000000000
138.310	-25.872	0.834	1.000000000
138.310	-19.599	0.834	1.000000000
138.310	-13.325	0.834	1.000000000
138.310	-7.051	0.834	1.000000000
138.310	-0.778	0.834	1.000000000
138.310	5.496	0.834	1.000000000
138.310	11.769	0.834	1.000000000
138.310	18.043	0.834	1.000000000
138.310	24.316	0.834	1.000000000
138.310	30.590	0.834	1.000000000
138.310	36.864	0.834	1.000000000
138.310	43.137	0.834	1.000000000
138.310	-41.556	6.267	1.000000000
138.310	-29.009	6.267	1.000000000
138.310	-22.735	6.267	1.000000000
138.310	-16.462	6.267	1.000000000
138.310	-10.188	6.267	1.000000000
138.310	-3.915	6.267	1.000000000
138.310	2.359	6.267	1.000000000
138.310	8.632	6.267	1.000000000
138.310	14.906	6.267	1.000000000
138.310	21.180	6.267	1.000000000
138.310	27.453	6.267	1.000000000
138.310	33.727	6.267	1.000000000
138.310	40.000	6.267	1.000000000
138.310	46.274	6.267	1.000000000
138.310	-38.419	11.700	1.000000000
138.310	-19.599	11.700	1.000000000
138.310	-13.325	11.700	1.000000000
138.310	-7.051	11.700	1.000000000
138.310	-0.778	11.700	1.000000000
138.310	5.496	11.700	1.000000000
138.310	11.769	11.700	1.000000000
138.310	18.043	11.700	1.000000000
138.310	24.316	11.700	1.000000000
138.310	30.590	11.700	1.000000000
138.310	36.864	11.700	1.000000000
138.310	43.137	11.700	1.000000000
138.310	-41.556	17.133	1.000000000
138.310	-16.462	17.133	1.000000000
138.310	-10.188	17.133	1.000000000
138.310	-3.915	17.133	1.000000000
138.310	2.359	17.133	1.000000000
138.310	8.632	17.133	1.000000000
138.310	14.906	17.133	1.000000000
138.310	21.180	17.133	1.000000000
138.310	27.453	17.133	1.000000000
138.310	33.727	17.133	1.000000000
138.310	40.000	17.133	1.000000000
138.310	46.274	17.133	1.000000000
138.310	-44.693	22.567	1.000000000
138.310	-38.419	22.567	1.000000000
138.310	-19.599	22.567	1.000000000
138.310	-13.325	22.567	1.000000000
138.310	-7.051	22.567	1.000000000
138.310	-0.778	22.567	1.000000000
138.310	5.496	22.567	1.000000000
138.310	11.769	22.567	1.000000000
138.310	18.043	22.567	1.000000000
138.310	24.316	22.567	1.000000000
138.310	30.590	22.567	1.000000000
138.310	36.864	22.567	1.000000000
138.310	43.137	22.567	1.000000000
138.310	-41.556	28.000	1.000000000
138.310	-16.462	28.000	1.000000000
138.310	-10.188	28.000	1.000000000
138.310	-3.915	28.000	1.000000000
138.310	2.359	28.000	1.000000000
138.310	8.632	28.000	1.000000000
138.310	14.906	28.000	1.000000000
138.310	21.180	28.000	1.000000000
138.310	27.453	28.000	1.000000000
138.310	33.727	28.000	1.000000000
138.310	40.000	28.000	1.000000000
138.310	-19.599	33.433	1.000000000
138.310	-13.325	33.433	1.000000000
138.310	-7.051	33.433	1.000000000
138.310	-0.778	33.433	1.000000000
138.310	5.496	33.433	1.000000000
138.310	11.769	33.433	1.000000000
138.310	18.043	33.433	1.000000000
138.310	24.316	33.433	1.000000000
138.310	30.590	33.433	1.000000000
138.310	43.137	33.433	1.000000000
138.310	-16.462	38.866	1.000000000
138.310	-10.188	38.866	1.000000000
138.310	-3.915	38.866	1.000000000
138.310	2.359	38.866	1.000000000
138.310	8.632	38.866	1.000000000
138.310	14.906	38.866	1.000000000
138.310	21.180	38.866	1.000000000
138.310	27.453	38.866	1.000000000
138.310	33.727	38.866	1.000000000
138.310	-38.419	44.299	1.000000000
138.310	-32.146	44.299	1.000000000
138.310	-13.325	44.299	1.000000000
138.310	-7.051	44.299	1.000000000
138.310	-0.778	44.299	1.000000000
138.310	5.496	44.299	1.000000000
138.310	11.769	44.299	1.000000000
138.310	18.043	44.299	1.000000000
138.310	24.316	44.299	1.000000000
138.310	30.590	44.299	1.000000000
138.310	-10.188	49.732	1.000000000
138.310	-3.915	49.732	1.000000000
138.310	2.359	49.732	1.000000000
138.310	8.632	49.732	1.000000000
138.310	14.906	49.732	1.000000000
138.310	21.180	49.732	1.000000000
138.310	27.453	49.732	1.000000000
135.334	-29.453	-37.881	1.000000000
135.334	-23.081	-37.881	1.000000000
135.334	-16.708	-37.881	1.000000000
135.334	-10.336	-37.881	1.000000000
135.334	-3.964	-37.881	1.000000000
135.334	2.408	-37.881	1.000000000
135.334	8.780	-37.881	1.000000000
135.334	-19.895	-32.362	1.000000000
135.334	-13.522	-32.362	1.000000000
135.334	-7.150	-32.362	1.000000000
135.334	37.455	-32.362	1.000000000
135.334	40.642	-26.844	1.000000000
135.334	-7.150	-21.325	1.000000000
135.334	-0.778	-21.325	1.000000000
135.334	5.594	-21.325	1.000000000
135.334	11.967	-21.325	1.000000000
135.334	37.455	-21.325	1.000000000
135.334	43.828	-21.325	1.000000000
135.334	-48.570	-15.807	1.000000000
135.334	-42.197	-15.807	1.000000000
135.334	-35.825	-15.807	1.000000000
135.334	-29.453	-15.807	1.000000000
135.334	-23.081	-15.807	1.000000000
135.334	-16.708	-15.807	1.000000000
135.334	-10.336	-15.807	1.000000000
135.334	-3.964	-15.807	1.000000000
135.334	2.408	-15.807	1.000000000
135.334	8.780	-15.807	1.000000000
135.334	15.153	-15.807	1.000000000
135.334	21.525	-15.807	1.000000000
135.334	40.642	-15.807	1.000000000
135.334	47.014	-15.807	1.000000000
135.334	-45.383	-10.288	1.000000000
135.334	-39.011	-10.288	1.000000000
135.334	-19.895	-10.288	1.000000000
135.334	-13.522	-10.288	1.000000000
135.334	-7.150	-10.288	1.000000000
135.334	-0.778	-10.288	1.000000000
135.334	5.594	-10.288	1.000000000
135.334	11.967	-10.288	1.000000000
135.334	18.339	-10.288	1.000000000
135.334	24.711	-10.288	1.000000000
135.334	37.455	-10.288	1.000000000
135.334	43.828	-10.288	1.000000000
135.334	-42.197	-4.770	1.000000000
135.334	-16.708	-4.770	1.000000000
135.334	-10.336	-4.770	1.000000000
135.334	-3.964	-4.770	1.000000000
135.334	2.408	-4.770	1.000000000
135.334	8.780	-4.770	1.000000000
135.334	15.153	-4.770	1.000000000
135.334	21.525	-4.770	1.000000000
135.334	27.897	-4.770	1.000000000
135.334	34.269	-4.770	1.000000000
135.334	40.642	-4.770	1.000000000
135.334	47.014	-4.770	1.000000000
135.334	-13.522	0.749	1.000000000
135.334	-7.150	0.749	1.000000000
135.334	-0.778	0.749	1.000000000
135.334	5.594	0.749	1.000000000
135.334	11.967	0.749	1.000000000
135.334	18.339	0.749	1.000000000
135.334	24.711	0.749	1.000000000
135.334	31.083	0.749	1.000000000
135.334	37.455	0.749	1.000000000
135.334	43.828	0.749	1.000000000
135.334	-42.197	6.267	1.000000000
135.334	-16.708	6.267	1.000000000
135.334	-10.336	6.267	1.000000000
135.334	-3.964	6.267	1.000000000
135.334	2.408	6.267	1.000000000
135.334	8.780	6.267	1.000000000
135.334	15.153	6.267	1.000000000
135.334	21.525	6.267	1.000000000
135.334	27.897	6.267	1.000000000
135.334	34.269	6.267	1.000000000
135.334	40.642	6.267	1.000000000
135.334	47.014	6.267	1.000000000
135.334	-39.011	11.786	1.000000000
135.334	-13.522	11.786	1.000000000
135.334	-7.150	11.786	1.000000000
135.334	-0.778	11.786	1.000000000
135.334	5.594	11.786	1.000000000
135.334	11.967	11.786	1.000000000
135.334	18.339	11.786	1.000000000
135.334	24.711	11.786	1.000000000
135.334	31.083	11.786	1.000000000
135.334	37.455	11.786	1.000000000
135.334	43.828	11.786	1.000000000
135.334	-42.197	17.304	1.000000000
135.334	-35.825	17.304	1.000000000
135.334	-16.708	17.304	1.000000000
135.334	-10.336	17.304	1.000000000
135.334	-3.964	17.304	1.000000000
135.334	2.408	17.304	1.000000000
135.334	8.780	17.304	1.000000000
135.334	15.153	17.304	1.000000000
135.334	21.525	17.304	1.000000000
135.334	27.897	17.304	1.000000000
135.334	34.269	17.304	1.000000000
135.334	40.642	17.304	1.000000000
135.334	47.014	17.304	1.000000000
135.334	-39.011	22.823	1.000000000
135.334	-7.150	22.823	1.000000000
135.334	-0.778	22.823	1.000000000
135.334	5.594	22.823	1.000000000
135.334	11.967	22.823	1.000000000
135.334	18.339	22.823	1.000000000
135.334	24.711	22.823	1.000000000
135.334	37.455	22.823	1.000000000
135.334	43.828	22.823	1.000000000
135.334	-42.197	28.341	1.000000000
135.334	-3.964	28.341	1.000000000
135.334	2.408	28.341	1.000000000
135.334	8.780	28.341	1.000000000
135.334	15.153	28.341	1.000000000
135.334	21.525	28.341	1.000000000
135.334	27.897	28.341	1.000000000
135.334	34.269	28.341	1.000000000
135.334	40.642	28.341	1.000000000
135.334	47.014	28.341	1.000000000
135.334	-39.011	33.860	1.000000000
135.334	-7.150	33.860	1.000000000
135.334	-0.778	33.860	1.000000000
135.334	5.594	33.860	1.000000000
135.334	11.967	33.860	1.000000000
135.334	18.339	33.860	1.000000000
135.334	24.711	33.860	1.000000000
135.334	31.083	33.860	1.000000000
135.334	37.455	33.860	1.000000000
135.334	-35.825	39.378	1.000000000
135.334	2.408	39.378	1.000000000
135.334	8.780	39.378	1.000000000
135.334	15.153	39.378	1.000000000
135.334	21.525	39.378	1.000000000
135.334	27.897	39.378	1.000000000
135.334	-32.639	44.897	1.000000000
135.334	11.967	44.897	1.000000000
135.334	18.339	44.897	1.000000000
135.334	24.711	44.897	1.000000000
135.334	31.083	44.897	1.000000000
135.334	21.525	50.415	1.000000000
132.461	-36.359	-38.554	1.000000000
132.461	-29.890	-38.554	1.000000000
132.461	-23.421	-38.554	1.000000000
132.461	-16.951	-38.554	1.000000000
132.461	-10.482	-38.554	1.000000000
132.461	-4.013	-38.554	1.000000000
132.461	2.457	-38.554	1.000000000
132.461	8.926	-38.554	1.000000000
132.461	15.396	-38.554	1.000000000
132.461	-33.125	-32.951	1.000000000
132.461	-26.655	-32.951	1.000000000
132.461	-20.186	-32.951	1.000000000
132.461	-13.717	-32.951	1.000000000
132.461	-7.247	-32.951	1.000000000
132.461	-0.778	-32.951	1.000000000
132.461	5.692	-32.951	1.000000000
132.461	-23.421	-27.349	1.000000000
132.461	-16.951	-27.349	1.000000000
132.461	-10.482	-27.349	1.000000000
132.461	21.865	-27.349	1.000000000
132.461	34.804	-27.349	1.000000000
132.461	41.273	-27.349	1.000000000
132.461	-46.064	-21.746	1.000000000
132.461	-39.594	-21.746	1.000000000
132.461	-26.655	-21.746	1.000000000
132.461	-20.186	-21.746	1.000000000
132.461	-13.717	-21.746	1.000000000
132.461	-7.247	-21.746	1.000000000
132.461	-0.778	-21.746	1.000000000
132.461	5.692	-21.746	1.000000000
132.461	12.161	-21.746	1.000000000
132.461	18.630	-21.746	1.000000000
132.461	25.100	-21.746	1.000000000
132.461	31.569	-21.746	1.000000000
132.461	38.038	-21.746	1.000000000
132.461	44.508	-21.746	1.000000000
132.461	-42.829	-16.143	1.000000000
132.461	-36.359	-16.143	1.000000000
132.461	-29.890	-16.143	1.000000000
132.461	-23.421	-16.143	1.000000000
132.461	-16.951	-16.143	1.000000000
132.461	-10.482	-16.143	1.000000000
132.461	-4.013	-16.143	1.000000000
132.461	2.457	-16.143	1.000000000
132.461	8.926	-16.143	1.000000000
132.461	15.396	-16.143	1.000000000
132.461	21.865	-16.143	1.000000000
132.461	34.804	-16.143	1.000000000
132.461	41.273	-16.143	1.000000000
132.461	-39.594	-10.541	1.000000000
132.461	-33.125	-10.541	1.000000000
132.461	-26.655	-10.541	1.000000000
132.461	-20.186	-10.541	1.000000000
132.461	-13.717	-10.541	1.000000000
132.461	-7.247	-10.541	1.000000000
132.461	-0.778	-10.541	1.000000000
132.461	5.692	-10.541	1.000000000
132.461	12.161	-10.541	1.000000000
132.461	18.630	-10.541	1.000000000
132.461	25.100	-10.541	1.000000000
132.461	31.569	-10.541	1.000000000
132.461	38.038	-10.541	1.000000000
132.461	44.508	-10.541	1.000000000
132.461	-42.829	-4.938	1.000000000
132.461	-36.359	-4.938	1.000000000
132.461	-29.890	-4.938	1.000000000
132.461	-23.421	-4.938	1.000000000
132.461	-16.951	-4.938	1.000000000
132.461	-10.482	-4.938	1.000000000
132.461	-4.013	-4.938	1.000000000
132.461	2.457	-4.938	1.000000000
132.461	8.926	-4.938	1.000000000
132.461	15.396	-4.938	1.000000000
132.461	21.865	-4.938	1.000000000
132.461	28.334	-4.938	1.000000000
132.461	34.804	-4.938	1.000000000
132.461	41.273	-4.938	1.000000000
132.461	-39.594	0.665	1.000000000
132.461	-33.125	0.665	1.000000000
132.461	-13.717	0.665	1.000000000
132.461	-7.247	0.665	1.000000000
132.461	-0.778	0.665	1.000000000
132.461	5.692	0.665	1.000000000
132.461	12.161	0.665	1.000000000
132.461	18.630	0.665	1.000000000
132.461	25.100	0.665	1.000000000
132.461	31.569	0.665	1.000000000
132.461	38.038	0.665	1.000000000
132.461	44.508	0.665	1.000000000
132.461	-49.298	6.267	1.000000000
132.461	-36.359	6.267	1.000000000
132.461	-16.951	6.267	1.000000000
132.461	-10.482	6.267	1.000000000
132.461	-4.013	6.267	1.000000000
132.461	2.457	6.267	1.000000000
132.461	8.926	6.267	1.000000000
132.461	15.396	6.267	1.000000000
132.461	21.865	6.267	1.000000000
132.461	28.334	6.267	1.000000000
132.461	34.804	6.267	1.000000000
132.461	41.273	6.267	1.000000000
132.461	-33.125	11.870	1.000000000
132.461	-13.717	11.870	1.000000000
132.461	-7.247	11.870	1.000000000
132.461	-0.778	11.870	1.000000000
132.461	5.692	11.870	1.000000000
132.461	12.161	11.870	1.000000000
132.461	18.630	11.870	1.000000000
132.461	25.100	11.870	1.000000000
132.461	31.569	11.870	1.000000000
132.461	38.038	11.870	1.000000000
132.461	44.508	11.870	1.000000000
132.461	-36.359	17.473	1.000000000
132.461	-29.890	17.473	1.000000000
132.461	-16.951	17.473	1.000000000
132.461	-10.482	17.473	1.000000000
132.461	-4.013	17.473	1.000000000
132.461	2.457	17.473	1.000000000
132.461	8.926	17.473	1.000000000
132.461	15.396	17.473	1.000000000
132.461	21.865	17.473	1.000000000
132.461	28.334	17.473	1.000000000
132.461	34.804	17.473	1.000000000
132.461	41.273	17.473	1.000000000
132.461	-39.594	23.075	1.000000000
132.461	-33.125	23.075	1.000000000
132.461	-7.247	23.075	1.000000000
132.461	-0.778	23.075	1.000000000
132.461	5.692	23.075	1.000000000
132.461	12.161	23.075	1.000000000
132.461	18.630	23.075	1.000000000
132.461	25.100	23.075	1.000000000
132.461	38.038	23.075	1.000000000
132.461	44.508	23.075	1.000000000
132.461	-36.359	28.678	1.000000000
132.461	15.396	28.678	1.000000000
132.461	21.865	28.678	1.000000000
132.461	28.334	28.678	1.000000000
132.461	34.804	28.678	1.000000000
132.461	41.273	28.678	1.000000000
132.461	47.742	28.678	1.000000000
132.461	-33.125	34.281	1.000000000
132.461	12.161	34.281	1.000000000
132.461	18.630	34.281	1.000000000
132.461	25.100	34.281	1.000000000
132.461	31.569	34.281	1.000000000
132.461	38.038	34.281	1.000000000
132.461	-29.890	39.883	1.000000000
132.461	15.396	39.883	1.000000000
132.461	21.865	39.883	1.000000000
132.461	28.334	39.883	1.000000000
132.461	34.804	39.883	1.000000000
132.461	-26.655	45.486	1.000000000
132.461	18.630	45.486	1.000000000
132.461	25.100	45.486	1.000000000
132.461	31.569	45.486	1.000000000
132.461	-23.421	51.089	1.000000000
132.461	15.396	51.089	1.000000000
132.461	21.865	51.089	1.000000000
129.451	-36.943	-39.289	1.000000000
129.451	-30.367	-39.289	1.000000000
129.451	-23.792	-39.289	1.000000000
129.451	-17.217	-39.289	1.000000000
129.451	-10.641	-39.289	1.000000000
129.451	-4.066	-39.289	1.000000000
129.451	2.510	-39.289	1.000000000
129.451	9.085	-39.289	1.000000000
129.451	15.661	-39.289	1.000000000
129.451	-33.655	-33.594	1.000000000
129.451	-27.080	-33.594	1.000000000
129.451	-20.504	-33.594	1.000000000
129.451	-13.929	-33.594	1.000000000
129.451	-7.353	-33.594	1.000000000
129.451	-0.778	-33.594	1.000000000
129.451	5.798	-33.594	1.000000000
129.451	18.949	-33.594	1.000000000
129.451	25.524	-33.594	1.000000000
129.451	32.099	-33.594	1.000000000
129.451	-50.094	-27.900	1.000000000
129.451	-43.518	-27.900	1.000000000
129.451	-36.943	-27.900	1.000000000
129.451	-30.367	-27.900	1.000000000
129.451	-23.792	-27.900	1.000000000
129.451	-17.217	-27.900	1.000000000
129.451	-10.641	-27.900	1.000000000
129.451	-4.066	-27.900	1.000000000
129.451	9.085	-27.900	1.000000000
129.451	15.661	-27.900	1.000000000
129.451	22.236	-27.900	1.000000000
129.451	28.812	-27.900	1.000000000
129.451	35.387	-27.900	1.000000000
129.451	41.963	-27.900	1.000000000
129.451	-33.655	-22.205	1.000000000
129.451	-27.080	-22.205	1.000000000
129.451	-20.504	-22.205	1.000000000
129.451	-13.929	-22.205	1.000000000
129.451	-7.353	-22.205	1.000000000
129.451	-0.778	-22.205	1.000000000
129.451	5.798	-22.205	1.000000000
129.451	12.373	-22.205	1.000000000
129.451	18.949	-22.205	1.000000000
129.451	25.524	-22.205	1.000000000
129.451	32.099	-22.205	1.000000000
129.451	38.675	-22.205	1.000000000
129.451	-36.943	-16.511	1.000000000
129.451	-30.367	-16.511	1.000000000
129.451	-23.792	-16.511	1.000000000
129.451	-17.217	-16.511	1.000000000
129.451	-10.641	-16.511	1.000000000
129.451	-4.066	-16.511	1.000000000
129.451	2.510	-16.511	1.000000000
129.451	9.085	-16.511	1.000000000
129.451	15.661	-16.511	1.000000000
129.451	22.236	-16.511	1.000000000
129.451	28.812	-16.511	1.000000000
129.451	35.387	-16.511	1.000000000
129.451	41.963	-16.511	1.000000000
129.451	-40.231	-10.816	1.000000000
129.451	-33.655	-10.816	1.000000000
129.451	-27.080	-10.816	1.000000000
129.451	-20.504	-10.816	1.000000000
129.451	-13.929	-10.816	1.000000000
129.451	-7.353	-10.816	1.000000000
129.451	-0.778	-10.816	1.000000000
129.451	5.798	-10.816	1.000000000
129.451	12.373	-10.816	1.000000000
129.451	18.949	-10.816	1.000000000
129.451	25.524	-10.816	1.000000000
129.451	32.099	-10.816	1.000000000
129.451	38.675	-10.816	1.000000000
129.451	45.250	-10.816	1.000000000
129.451	-36.943	-5.122	1.000000000
129.451	-30.367	-5.122	1.000000000
129.451	-23.792	-5.122	1.000000000
129.451	-17.217	-5.122	1.000000000
129.451	-10.641	-5.122	1.000000000
129.451	-4.066	-5.122	1.000000000
129.451	2.510	-5.122	1.000000000
129.451	9.085	-5.122	1.000000000
129.451	15.661	-5.122	1.000000000
129.451	22.236	-5.122	1.000000000
129.451	28.812	-5.122	1.000000000
129.451	35.387	-5.122	1.000000000
129.451	41.963	-5.122	1.000000000
129.451	-40.231	0.573	1.000000000
129.451	-33.655	0.573	1.000000000
129.451	-27.080	0.573	1.000000000
129.451	-20.504	0.573	1.000000000
129.451	-13.929	0.573	1.000000000
129.451	-7.353	0.573	1.000000000
129.451	-0.778	0.573	1.000000000
129.451	5.798	0.573	1.000000000
129.451	12.373	0.573	1.000000000
129.451	18.949	0.573	1.000000000
129.451	25.524	0.573	1.000000000
129.451	32.099	0.573	1.000000000
129.451	38.675	0.573	1.000000000
129.451	45.250	0.573	1.000000000
129.451	-36.943	6.267	1.000000000
129.451	-30.367	6.267	1.000000000
129.451	-17.217	6.267	1.000000000
129.451	-10.641	6.267	1.000000000
129.451	-4.066	6.267	1.000000000
129.451	2.510	6.267	1.000000000
129.451	9.085	6.267	1.000000000
129.451	15.661	6.267	1.000000000
129.451	22.236	6.267	1.000000000
129.451	28.812	6.267	1.000000000
129.451	35.387	6.267	1.000000000
129.451	41.963	6.267	1.000000000
129.451	-33.655	11.962	1.000000000
129.451	-27.080	11.962	1.000000000
129.451	-20.504	11.962	1.000000000
129.451	-13.929	11.962	1.000000000
129.451	-7.353	11.962	1.000000000
129.451	-0.778	11.962	1.000000000
129.451	5.798	11.962	1.000000000
129.451	12.373	11.962	1.000000000
129.451	18.949	11.962	1.000000000
129.451	25.524	11.962	1.000000000
129.451	32.099	11.962	1.000000000
129.451	38.675	11.962	1.000000000
129.451	45.250	11.962	1.000000000
129.451	-30.367	17.656	1.000000000
129.451	-23.792	17.656	1.000000000
129.451	-17.217	17.656	1.000000000
129.451	-10.641	17.656	1.000000000
129.451	-4.066	17.656	1.000000000
129.451	2.510	17.656	1.000000000
129.451	9.085	17.656	1.000000000
129.451	15.661	17.656	1.000000000
129.451	22.236	17.656	1.000000000
129.451	28.812	17.656	1.000000000
129.451	35.387	17.656	1.000000000
129.451	41.963	17.656	1.000000000
129.451	-33.655	23.351	1.000000000
129.451	-27.080	23.351	1.000000000
129.451	-20.504	23.351	1.000000000
129.451	-13.929	23.351	1.000000000
129.451	-7.353	23.351	1.000000000
129.451	-0.778	23.351	1.000000000
129.451	5.798	23.351	1.000000000
129.451	12.373	23.351	1.000000000
129.451	18.949	23.351	1.000000000
129.451	25.524	23.351	1.000000000
129.451	32.099	23.351	1.000000000
129.451	38.675	23.351	1.000000000
129.451	45.250	23.351	1.000000000
129.451	-30.367	29.045	1.000000000
129.451	-23.792	29.045	1.000000000
129.451	9.085	29.045	1.000000000
129.451	15.661	29.045	1.000000000
129.451	22.236	29.045	1.000000000
129.451	28.812	29.045	1.000000000
129.451	35.387	29.045	1.000000000
129.451	41.963	29.045	1.000000000
129.451	-33.655	34.740	1.000000000
129.451	-27.080	34.740	1.000000000
129.451	12.373	34.740	1.000000000
129.451	18.949	34.740	1.000000000
129.451	25.524	34.740	1.000000000
129.451	32.099	34.740	1.000000000
129.451	38.675	34.740	1.000000000
129.451	-30.367	40.434	1.000000000
129.451	-23.792	40.434	1.000000000
129.451	15.661	40.434	1.000000000
129.451	22.236	40.434	1.000000000
129.451	28.812	40.434	1.000000000
129.451	35.387	40.434	1.000000000
129.451	-20.504	46.129	1.000000000
129.451	12.373	46.129	1.000000000
129.451	18.949	46.129	1.000000000
129.451	25.524	46.129	1.000000000
129.451	32.099	46.129	1.000000000
129.451	-17.217	51.823	1.000000000
129.451	15.661	51.823	1.000000000
126.267	-40.928	-37.197	1.000000000
126.267	-34.236	-37.197	1.000000000
126.267	-27.545	-37.197	1.000000000
126.267	-20.853	-37.197	1.000000000
126.267	-14.161	-37.197	1.000000000
126.267	-7.470	-37.197	1.000000000
126.267	-0.778	-37.197	1.000000000
126.267	5.914	-37.197	1.000000000
126.267	12.606	-37.197	1.000000000
126.267	19.297	-37.197	1.000000000
126.267	25.989	-37.197	1.000000000
126.267	-44.274	-31.401	1.000000000
126.267	-37.582	-31.401	1.000000000
126.267	-30.891	-31.401	1.000000000
126.267	-24.199	-31.401	1.000000000
126.267	-17.507	-31.401	1.000000000
126.267	-10.815	-31.401	1.000000000
126.267	-4.124	-31.401	1.000000000
126.267	2.568	-31.401	1.000000000
126.267	9.260	-31.401	1.000000000
126.267	15.951	-31.401	1.000000000
126.267	22.643	-31.401	1.000000000
126.267	29.335	-31.401	1.000000000
126.267	-34.236	-25.606	1.000000000
126.267	-27.545	-25.606	1.000000000
126.267	-20.853	-25.606	1.000000000
126.267	-14.161	-25.606	1.000000000
126.267	-7.470	-25.606	1.000000000
126.267	-0.778	-25.606	1.000000000
126.267	5.914	-25.606	1.000000000
126.267	12.606	-25.606	1.000000000
126.267	19.297	-25.606	1.000000000
126.267	25.989	-25.606	1.000000000
126.267	32.681	-25.606	1.000000000
126.267	39.372	-25.606	1.000000000
126.267	-30.891	-19.811	1.000000000
126.267	-24.199	-19.811	1.000000000
126.267	-17.507	-19.811	1.000000000
126.267	-10.815	-19.811	1.000000000
126.267	-4.124	-19.811	1.000000000
126.267	2.568	-19.811	1.000000000
126.267	9.260	-19.811	1.000000000
126.267	15.951	-19.811	1.000000000
126.267	22.643	-19.811	1.000000000
126.267	29.335	-19.811	1.000000000
126.267	36.027	-19.811	1.000000000
126.267	42.718	-19.811	1.000000000
126.267	-27.545	-14.016	1.000000000
126.267	-20.853	-14.016	1.000000000
126.267	-14.161	-14.016	1.000000000
126.267	-7.470	-14.016	1.000000000
126.267	-0.778	-14.016	1.000000000
126.267	5.914	-14.016	1.000000000
126.267	12.606	-14.016	1.000000000
126.267	19.297	-14.016	1.000000000
126.267	25.989	-14.016	1.000000000
126.267	32.681	-14.016	1.000000000
126.267	39.372	-14.016	1.000000000
126.267	-30.891	-8.221	1.000000000
126.267	-24.199	-8.221	1.000000000
126.267	-17.507	-8.221	1.000000000
126.267	-10.815	-8.221	1.000000000
126.267	-4.124	-8.221	1.000000000
126.267	2.568	-8.221	1.000000000
126.267	9.260	-8.221	1.000000000
126.267	15.951	-8.221	1.000000000
126.267	22.643	-8.221	1.000000000
126.267	29.335	-8.221	1.000000000
126.267	36.027	-8.221	1.000000000
126.267	42.718	-8.221	1.000000000
126.267	-47.620	-2.425	1.000000000
126.267	-34.236	-2.425	1.000000000
126.267	-27.545	-2.425	1.000000000
126.267	-20.853	-2.425	1.000000000
126.267	-14.161	-2.425	1.000000000
126.267	-7.470	-2.425	1.000000000
126.267	-0.778	-2.425	1.000000000
126.267	5.914	-2.425	1.000000000
126.267	12.606	-2.425	1.000000000
126.267	19.297	-2.425	1.000000000
126.267	25.989	-2.425	1.000000000
126.267	32.681	-2.425	1.000000000
126.267	39.372	-2.425	1.000000000
126.267	-44.274	3.370	1.000000000
126.267	-30.891	3.370	1.000000000
126.267	-24.199	3.370	1.000000000
126.267	-17.507	3.370	1.000000000
126.267	-10.815	3.370	1.000000000
126.267	-4.124	3.370	1.000000000
126.267	2.568	3.370	1.000000000
126.267	9.260	3.370	1.000000000
126.267	15.951	3.370	1.000000000
126.267	22.643	3.370	1.000000000
126.267	29.335	3.370	1.000000000
126.267	36.027	3.370	1.000000000
126.267	42.718	3.370	1.000000000
126.267	-27.545	9.165	1.000000000
126.267	-20.853	9.165	1.000000000
126.267	-14.161	9.165	1.000000000
126.267	-7.470	9.165	1.000000000
126.267	-0.778	9.165	1.000000000
126.267	5.914	9.165	1.000000000
126.267	12.606	9.165	1.000000000
126.267	19.297	9.165	1.000000000
126.267	25.989	9.165	1.000000000
126.267	32.681	9.165	1.000000000
126.267	39.372	9.165	1.000000000
126.267	46.064	9.165	1.000000000
126.267	-44.274	14.960	1.000000000
126.267	-24.199	14.960	1.000000000
126.267	-17.507	14.960	1.000000000
126.267	-10.815	14.960	1.000000000
126.267	-4.124	14.960	1.000000000
126.267	2.568	14.960	1.000000000
126.267	9.260	14.960	1.000000000
126.267	15.951	14.960	1.000000000
126.267	22.643	14.960	1.000000000
126.267	29.335	14.960	1.000000000
126.267	36.027	14.960	1.000000000
126.267	42.718	14.960	1.000000000
126.267	-20.853	20.755	1.000000000
126.267	-14.161	20.755	1.000000000
126.267	-7.470	20.755	1.000000000
126.267	-0.778	20.755	1.000000000
126.267	5.914	20.755	1.000000000
126.267	12.606	20.755	1.000000000
126.267	19.297	20.755	1.000000000
126.267	25.989	20.755	1.000000000
126.267	32.681	20.755	1.000000000
126.267	39.372	20.755	1.000000000
126.267	46.064	20.755	1.000000000
126.267	-30.891	26.551	1.000000000
126.267	-24.199	26.551	1.000000000
126.267	-17.507	26.551	1.000000000
126.267	-10.815	26.551	1.000000000
126.267	-4.124	26.551	1.000000000
126.267	2.568	26.551	1.000000000
126.267	9.260	26.551	1.000000000
126.267	15.951	26.551	1.000000000
126.267	22.643	26.551	1.000000000
126.267	29.335	26.551	1.000000000
126.267	36.027	26.551	1.000000000
126.267	42.718	26.551	1.000000000
126.267	-27.545	32.346	1.000000000
126.267	-20.853	32.346	1.000000000
126.267	-14.161	32.346	1.000000000
126.267	-7.470	32.346	1.000000000
126.267	-0.778	32.346	1.000000000
126.267	5.914	32.346	1.000000000
126.267	12.606	32.346	1.000000000
126.267	19.297	32.346	1.000000000
126.267	25.989	32.346	1.000000000
126.267	32.681	32.346	1.000000000
126.267	39.372	32.346	1.000000000
126.267	46.064	32.346	1.000000000
126.267	-24.199	38.141	1.000000000
126.267	-17.507	38.141	1.000000000
126.267	9.260	38.141	1.000000000
126.267	15.951	38.141	1.000000000
126.267	22.643	38.141	1.000000000
126.267	29.335	38.141	1.000000000
126.267	36.027	38.141	1.000000000
126.267	-20.853	43.936	1.000000000
126.267	-14.161	43.936	1.000000000
126.267	12.606	43.936	1.000000000
126.267	19.297	43.936	1.000000000
126.267	25.989	43.936	1.000000000
126.267	32.681	43.936	1.000000000
126.267	-10.815	49.731	1.000000000
126.267	2.568	49.731	1.000000000
126.267	15.951	49.731	1.000000000
126.267	22.643	49.731	1.000000000
124.699	-34.540	-37.591	1.000000000
124.699	-27.788	-37.591	1.000000000
124.699	-21.035	-37.591	1.000000000
124.699	-14.283	-37.591	1.000000000
124.699	-7.530	-37.591	1.000000000
124.699	-0.778	-37.591	1.000000000
124.699	5.975	-37.591	1.000000000
124.699	12.727	-37.591	1.000000000
124.699	19.480	-37.591	1.000000000
124.699	26.232	-37.591	1.000000000
124.699	-44.669	-31.743	1.000000000
124.699	-37.916	-31.743	1.000000000
124.699	-31.164	-31.743	1.000000000
124.699	-24.412	-31.743	1.000000000
124.699	-17.659	-31.743	1.000000000
124.699	-10.907	-31.743	1.000000000
124.699	-4.154	-31.743	1.000000000
124.699	2.598	-31.743	1.000000000
124.699	9.351	-31.743	1.000000000
124.699	16.103	-31.743	1.000000000
124.699	-27.788	-25.896	1.000000000
124.699	-21.035	-25.896	1.000000000
124.699	-14.283	-25.896	1.000000000
124.699	-7.530	-25.896	1.000000000
124.699	-0.778	-25.896	1.000000000
124.699	5.975	-25.896	1.000000000
124.699	12.727	-25.896	1.000000000
124.699	19.480	-25.896	1.000000000
124.699	26.232	-25.896	1.000000000
124.699	39.737	-25.896	1.000000000
124.699	-31.164	-20.048	1.000000000
124.699	-24.412	-20.048	1.000000000
124.699	-17.659	-20.048	1.000000000
124.699	-10.907	-20.048	1.000000000
124.699	-4.154	-20.048	1.000000000
124.699	2.598	-20.048	1.000000000
124.699	9.351	-20.048	1.000000000
124.699	16.103	-20.048	1.000000000
124.699	22.856	-20.048	1.000000000
124.699	29.608	-20.048	1.000000000
124.699	36.361	-20.048	1.000000000
124.699	43.113	-20.048	1.000000000
124.699	-27.788	-14.200	1.000000000
124.699	-21.035	-14.200	1.000000000
124.699	-14.283	-14.200	1.000000000
124.699	-7.530	-14.200	1.000000000
124.699	-0.778	-14.200	1.000000000
124.699	5.975	-14.200	1.000000000
124.699	12.727	-14.200	1.000000000
124.699	19.480	-14.200	1.000000000
124.699	26.232	-14.200	1.000000000
124.699	32.984	-14.200	1.000000000
124.699	39.737	-14.200	1.000000000
124.699	-31.164	-8.352	1.000000000
124.699	-24.412	-8.352	1.000000000
124.699	-17.659	-8.352	1.000000000
124.699	-10.907	-8.352	1.000000000
124.699	-4.154	-8.352	1.000000000
124.699	2.598	-8.352	1.000000000
124.699	9.351	-8.352	1.000000000
124.699	16.103	-8.352	1.000000000
124.699	22.856	-8.352	1.000000000
124.699	29.608	-8.352	1.000000000
124.699	36.361	-8.352	1.000000000
124.699	43.113	-8.352	1.000000000
124.699	-34.540	-2.504	1.000000000
124.699	-27.788	-2.504	1.000000000
124.699	-21.035	-2.504	1.000000000
124.699	-14.283	-2.504	1.000000000
124.699	-7.530	-2.504	1.000000000
124.699	-0.778	-2.504	1.000000000
124.699	5.975	-2.504	1.000000000
124.699	12.727	-2.504	1.000000000
124.699	19.480	-2.504	1.000000000
124.699	26.232	-2.504	1.000000000
124.699	32.984	-2.504	1.000000000
124.699	39.737	-2.504	1.000000000
124.699	-44.669	3.343	1.000000000
124.699	-31.164	3.343	1.000000000
124.699	-24.412	3.343	1.000000000
124.699	-17.659	3.343	1.000000000
124.699	-10.907	3.343	1.000000000
124.699	-4.154	3.343	1.000000000
124.699	2.598	3.343	1.000000000
124.699	9.351	3.343	1.000000000
124.699	16.103	3.343	1.000000000
124.699	22.856	3.343	1.000000000
124.699	29.608	3.343	1.000000000
124.699	36.361	3.343	1.000000000
124.699	43.113	3.343	1.000000000
124.699	-41.293	9.191	1.000000000
124.699	-27.788	9.191	1.000000000
124.699	-21.035	9.191	1.000000000
124.699	-14.283	9.191	1.000000000
124.699	-7.530	9.191	1.000000000
124.699	-0.778	9.191	1.000000000
124.699	5.975	9.191	1.000000000
124.699	12.727	9.191	1.000000000
124.699	19.480	9.191	1.000000000
124.699	26.232	9.191	1.000000000
124.699	32.984	9.191	1.000000000
124.699	39.737	9.191	1.000000000
124.699	-44.669	15.039	1.000000000
124.699	-24.412	15.039	1.000000000
124.699	-17.659	15.039	1.000000000
124.699	-10.907	15.039	1.000000000
124.699	-4.154	15.039	1.000000000
124.699	2.598	15.039	1.000000000
124.699	9.351	15.039	1.000000000
124.699	16.103	15.039	1.000000000
124.699	22.856	15.039	1.000000000
124.699	29.608	15.039	1.000000000
124.699	36.361	15.039	1.000000000
124.699	43.113	15.039	1.000000000
124.699	-21.035	20.887	1.000000000
124.699	-14.283	20.887	1.000000000
124.699	-7.530	20.887	1.000000000
124.699	-0.778	20.887	1.000000000
124.699	5.975	20.887	1.000000000
124.699	12.727	20.887	1.000000000
124.699	19.480	20.887	1.000000000
124.699	26.232	20.887	1.000000000
124.699	32.984	20.887	1.000000000
124.699	39.737	20.887	1.000000000
124.699	46.489	20.887	1.000000000
124.699	-44.669	26.735	1.000000000
124.699	-24.412	26.735	1.000000000
124.699	-17.659	26.735	1.000000000
124.699	-10.907	26.735	1.000000000
124.699	-4.154	26.735	1.000000000
124.699	2.598	26.735	1.000000000
124.699	9.351	26.735	1.000000000
124.699	16.103	26.735	1.000000000
124.699	22.856	26.735	1.000000000
124.699	29.608	26.735	1.000000000
124.699	36.361	26.735	1.000000000
124.699	43.113	26.735	1.000000000
124.699	-21.035	32.582	1.000000000
124.699	-14.283	32.582	1.000000000
124.699	-7.530	32.582	1.000000000
124.699	-0.778	32.582	1.000000000
124.699	5.975	32.582	1.000000000
124.699	12.727	32.582	1.000000000
124.699	19.480	32.582	1.000000000
124.699	26.232	32.582	1.000000000
124.699	32.984	32.582	1.000000000
124.699	39.737	32.582	1.000000000
124.699	-17.659	38.430	1.000000000
124.699	-10.907	38.430	1.000000000
124.699	-4.154	38.430	1.000000000
124.699	9.351	38.430	1.000000000
124.699	16.103	38.430	1.000000000
124.699	22.856	38.430	1.000000000
124.699	29.608	38.430	1.000000000
124.699	36.361	38.430	1.000000000
124.699	-14.283	44.278	1.000000000
124.699	-7.530	44.278	1.000000000
124.699	-0.778	44.278	1.000000000
124.699	5.975	44.278	1.000000000
124.699	12.727	44.278	1.000000000
124.699	19.480	44.278	1.000000000
124.699	26.232	44.278	1.000000000
124.699	32.984	44.278	1.000000000
124.699	-10.907	50.126	1.000000000
124.699	-4.154	50.126	1.000000000
124.699	2.598	50.126	1.000000000
124.699	9.351	50.126	1.000000000
124.699	16.103	50.126	1.000000000
124.699	22.856	50.126	1.000000000
121.622	-28.267	-38.370	1.000000000
121.622	-21.395	-38.370	1.000000000
121.622	-14.523	-38.370	1.000000000
121.622	-7.650	-38.370	1.000000000
121.622	-0.778	-38.370	1.000000000
121.622	6.094	-38.370	1.000000000
121.622	-31.703	-32.418	1.000000000
121.622	-24.831	-32.418	1.000000000
121.622	-17.959	-32.418	1.000000000
121.622	-11.086	-32.418	1.000000000
121.622	9.531	-32.418	1.000000000
121.622	16.403	-32.418	1.000000000
121.622	-14.523	-26.467	1.000000000
121.622	-0.778	-26.467	1.000000000
121.622	6.094	-26.467	1.000000000
121.622	12.967	-26.467	1.000000000
121.622	40.456	-26.467	1.000000000
121.622	-11.086	-20.515	1.000000000
121.622	-4.214	-20.515	1.000000000
121.622	2.658	-20.515	1.000000000
121.622	9.531	-20.515	1.000000000
121.622	16.403	-20.515	1.000000000
121.622	37.020	-20.515	1.000000000
121.622	-42.012	-14.563	1.000000000
121.622	-14.523	-14.563	1.000000000
121.622	-7.650	-14.563	1.000000000
121.622	-0.778	-14.563	1.000000000
121.622	6.094	-14.563	1.000000000
121.622	12.967	-14.563	1.000000000
121.622	19.839	-14.563	1.000000000
121.622	26.712	-14.563	1.000000000
121.622	40.456	-14.563	1.000000000
121.622	-17.959	-8.612	1.000000000
121.622	-11.086	-8.612	1.000000000
121.622	-4.214	-8.612	1.000000000
121.622	2.658	-8.612	1.000000000
121.622	9.531	-8.612	1.000000000
121.622	16.403	-8.612	1.000000000
121.622	23.275	-8.612	1.000000000
121.622	30.148	-8.612	1.000000000
121.622	37.020	-8.612	1.000000000
121.622	43.892	-8.612	1.000000000
121.622	-42.012	-2.660	1.000000000
121.622	-14.523	-2.660	1.000000000
121.622	-7.650	-2.660	1.000000000
121.622	-0.778	-2.660	1.000000000
121.622	6.094	-2.660	1.000000000
121.622	12.967	-2.660	1.000000000
121.622	19.839	-2.660	1.000000000
121.622	26.712	-2.660	1.000000000
121.622	33.584	-2.660	1.000000000
121.622	40.456	-2.660	1.000000000
121.622	-24.831	3.292	1.000000000
121.622	-17.959	3.292	1.000000000
121.622	-11.086	3.292	1.000000000
121.622	-4.214	3.292	1.000000000
121.622	2.658	3.292	1.000000000
121.622	9.531	3.292	1.000000000
121.622	16.403	3.292	1.000000000
121.622	23.275	3.292	1.000000000
121.622	30.148	3.292	1.000000000
121.622	37.020	3.292	1.000000000
121.622	43.892	3.292	1.000000000
121.622	-42.012	9.243	1.000000000
121.622	-14.523	9.243	1.000000000
121.622	-7.650	9.243	1.000000000
121.622	-0.778	9.243	1.000000000
121.622	6.094	9.243	1.000000000
121.622	12.967	9.243	1.000000000
121.622	19.839	9.243	1.000000000
121.622	26.712	9.243	1.000000000
121.622	40.456	9.243	1.000000000
121.622	-38.576	15.195	1.000000000
121.622	-17.959	15.195	1.000000000
121.622	-11.086	15.195	1.000000000
121.622	-4.214	15.195	1.000000000
121.622	2.658	15.195	1.000000000
121.622	9.531	15.195	1.000000000
121.622	16.403	15.195	1.000000000
121.622	23.275	15.195	1.000000000
121.622	30.148	15.195	1.000000000
121.622	37.020	15.195	1.000000000
121.622	43.892	15.195	1.000000000
121.622	-42.012	21.146	1.000000000
121.622	-14.523	21.146	1.000000000
121.622	-7.650	21.146	1.000000000
121.622	-0.778	21.146	1.000000000
121.622	6.094	21.146	1.000000000
121.622	12.967	21.146	1.000000000
121.622	19.839	21.146	1.000000000
121.622	26.712	21.146	1.000000000
121.622	33.584	21.146	1.000000000
121.622	40.456	21.146	1.000000000
121.622	-38.576	27.098	1.000000000
121.622	-11.086	27.098	1.000000000
121.622	-4.214	27.098	1.000000000
121.622	2.658	27.098	1.000000000
121.622	9.531	27.098	1.000000000
121.622	16.403	27.098	1.000000000
121.622	23.275	27.098	1.000000000
121.622	30.148	27.098	1.000000000
121.622	37.020	27.098	1.000000000
121.622	43.892	27.098	1.000000000
121.622	-42.012	33.050	1.000000000
121.622	-14.523	33.050	1.000000000
121.622	-7.650	33.050	1.000000000
121.622	-0.778	33.050	1.000000000
121.622	6.094	33.050	1.000000000
121.622	12.967	33.050	1.000000000
121.622	19.839	33.050	1.000000000
121.622	26.712	33.050	1.000000000
121.622	33.584	33.050	1.000000000
121.622	40.456	33.050	1.000000000
121.622	-38.576	39.001	1.000000000
121.622	-11.086	39.001	1.000000000
121.622	-4.214	39.001	1.000000000
121.622	2.658	39.001	1.000000000
121.622	9.531	39.001	1.000000000
121.622	16.403	39.001	1.000000000
121.622	23.275	39.001	1.000000000
121.622	30.148	39.001	1.000000000
121.622	-35.140	44.953	1.000000000
121.622	-7.650	44.953	1.000000000
121.622	6.094	44.953	1.000000000
121.622	12.967	44.953	1.000000000
121.622	19.839	44.953	1.000000000
121.622	26.712	44.953	1.000000000
121.622	9.531	50.905	1.000000000
121.622	16.403	50.905	1.000000000
121.622	23.275	50.905	1.000000000
118.484	-35.769	-39.188	1.000000000
118.484	-28.771	-39.188	1.000000000
118.484	-21.773	-39.188	1.000000000
118.484	-14.774	-39.188	1.000000000
118.484	-7.776	-39.188	1.000000000
118.484	-0.778	-39.188	1.000000000
118.484	6.220	-39.188	1.000000000
118.484	13.219	-39.188	1.000000000
118.484	-32.270	-33.127	1.000000000
118.484	-25.272	-33.127	1.000000000
118.484	-18.274	-33.127	1.000000000
118.484	-11.275	-33.127	1.000000000
118.484	-4.277	-33.127	1.000000000
118.484	2.721	-33.127	1.000000000
118.484	-39.268	-21.006	1.000000000
118.484	-11.275	-21.006	1.000000000
118.484	-4.277	-21.006	1.000000000
118.484	2.721	-21.006	1.000000000
118.484	9.720	-21.006	1.000000000
118.484	16.718	-21.006	1.000000000
118.484	23.716	-21.006	1.000000000
118.484	37.713	-21.006	1.000000000
118.484	-42.768	-14.945	1.000000000
118.484	-35.769	-14.945	1.000000000
118.484	-28.771	-14.945	1.000000000
118.484	-21.773	-14.945	1.000000000
118.484	-14.774	-14.945	1.000000000
118.484	-7.776	-14.945	1.000000000
118.484	-0.778	-14.945	1.000000000
118.484	6.220	-14.945	1.000000000
118.484	13.219	-14.945	1.000000000
118.484	20.217	-14.945	1.000000000
118.484	34.214	-14.945	1.000000000
118.484	41.212	-14.945	1.000000000
118.484	-46.267	-8.884	1.000000000
118.484	-39.268	-8.884	1.000000000
118.484	-32.270	-8.884	1.000000000
118.484	-25.272	-8.884	1.000000000
118.484	-18.274	-8.884	1.000000000
118.484	-11.275	-8.884	1.000000000
118.484	-4.277	-8.884	1.000000000
118.484	2.721	-8.884	1.000000000
118.484	9.720	-8.884	1.000000000
118.484	16.718	-8.884	1.000000000
118.484	23.716	-8.884	1.000000000
118.484	30.714	-8.884	1.000000000
118.484	37.713	-8.884	1.000000000
118.484	-42.768	-2.824	1.000000000
118.484	-21.773	-2.824	1.000000000
118.484	-14.774	-2.824	1.000000000
118.484	-7.776	-2.824	1.000000000
118.484	-0.778	-2.824	1.000000000
118.484	6.220	-2.824	1.000000000
118.484	13.219	-2.824	1.000000000
118.484	20.217	-2.824	1.000000000
118.484	27.215	-2.824	1.000000000
118.484	34.214	-2.824	1.000000000
118.484	41.212	-2.824	1.000000000
118.484	-39.268	3.237	1.000000000
118.484	-11.275	3.237	1.000000000
118.484	-4.277	3.237	1.000000000
118.484	2.721	3.237	1.000000000
118.484	9.720	3.237	1.000000000
118.484	16.718	3.237	1.000000000
118.484	23.716	3.237	1.000000000
118.484	30.714	3.237	1.000000000
118.484	37.713	3.237	1.000000000
118.484	-35.769	9.298	1.000000000
118.484	-14.774	9.298	1.000000000
118.484	-7.776	9.298	1.000000000
118.484	-0.778	9.298	1.000000000
118.484	6.220	9.298	1.000000000
118.484	13.219	9.298	1.000000000
118.484	20.217	9.298	1.000000000
118.484	27.215	9.298	1.000000000
118.484	34.214	9.298	1.000000000
118.484	41.212	9.298	1.000000000
118.484	-39.268	15.358	1.000000000
118.484	-32.270	15.358	1.000000000
118.484	-18.274	15.358	1.000000000
118.484	-11.275	15.358	1.000000000
118.484	-4.277	15.358	1.000000000
118.484	2.721	15.358	1.000000000
118.484	9.720	15.358	1.000000000
118.484	16.718	15.358	1.000000000
118.484	23.716	15.358	1.000000000
118.484	30.714	15.358	1.000000000
118.484	37.713	15.358	1.000000000
118.484	44.711	15.358	1.000000000
118.484	-35.769	21.419	1.000000000
118.484	-14.774	21.419	1.000000000
118.484	-7.776	21.419	1.000000000
118.484	-0.778	21.419	1.000000000
118.484	6.220	21.419	1.000000000
118.484	13.219	21.419	1.000000000
118.484	20.217	21.419	1.000000000
118.484	27.215	21.419	1.000000000
118.484	34.214	21.419	1.000000000
118.484	41.212	21.419	1.000000000
118.484	-39.268	27.480	1.000000000
118.484	-32.270	27.480	1.000000000
118.484	2.721	27.480	1.000000000
118.484	9.720	27.480	1.000000000
118.484	16.718	27.480	1.000000000
118.484	23.716	27.480	1.000000000
118.484	37.713	27.480	1.000000000
118.484	44.711	27.480	1.000000000
118.484	-35.769	33.540	1.000000000
118.484	6.220	33.540	1.000000000
118.484	13.219	33.540	1.000000000
118.484	20.217	33.540	1.000000000
118.484	27.215	33.540	1.000000000
118.484	34.214	33.540	1.000000000
118.484	41.212	33.540	1.000000000
118.484	-32.270	39.601	1.000000000
118.484	2.721	39.601	1.000000000
118.484	16.718	39.601	1.000000000
118.484	23.716	39.601	1.000000000
118.484	30.714	39.601	1.000000000
118.484	-28.771	45.662	1.000000000
118.484	13.219	45.662	1.000000000
118.484	20.217	45.662	1.000000000
118.484	27.215	45.662	1.000000000
118.484	-25.272	51.722	1.000000000
118.484	16.718	51.722	1.000000000
118.484	23.716	51.722	1.000000000
115.209	-25.721	-40.022	1.000000000
115.209	-18.595	-40.022	1.000000000
115.209	-11.468	-40.022	1.000000000
115.209	-4.341	-40.022	1.000000000
115.209	2.786	-40.022	1.000000000
115.209	9.912	-40.022	1.000000000
115.209	-29.285	-33.850	1.000000000
115.209	-22.158	-33.850	1.000000000
115.209	-15.031	-33.850	1.000000000
115.209	-7.905	-33.850	1.000000000
115.209	-0.778	-33.850	1.000000000
115.209	6.349	-33.850	1.000000000
115.209	-32.848	-27.678	1.000000000
115.209	-25.721	-27.678	1.000000000
115.209	-18.595	-27.678	1.000000000
115.209	-11.468	-27.678	1.000000000
115.209	9.912	-27.678	1.000000000
115.209	17.039	-27.678	1.000000000
115.209	31.292	-27.678	1.000000000
115.209	38.419	-27.678	1.000000000
115.209	-36.412	-21.506	1.000000000
115.209	-29.285	-21.506	1.000000000
115.209	-22.158	-21.506	1.000000000
115.209	-15.031	-21.506	1.000000000
115.209	-7.905	-21.506	1.000000000
115.209	-0.778	-21.506	1.000000000
115.209	6.349	-21.506	1.000000000
115.209	13.476	-21.506	1.000000000
115.209	20.602	-21.506	1.000000000
115.209	27.729	-21.506	1.000000000
115.209	34.856	-21.506	1.000000000
115.209	-39.975	-15.334	1.000000000
115.209	-32.848	-15.334	1.000000000
115.209	-25.721	-15.334	1.000000000
115.209	-18.595	-15.334	1.000000000
115.209	-11.468	-15.334	1.000000000
115.209	-4.341	-15.334	1.000000000
115.209	2.786	-15.334	1.000000000
115.209	9.912	-15.334	1.000000000
115.209	17.039	-15.334	1.000000000
115.209	24.166	-15.334	1.000000000
115.209	31.292	-15.334	1.000000000
115.209	38.419	-15.334	1.000000000
115.209	-43.538	-9.163	1.000000000
115.209	-36.412	-9.163	1.000000000
115.209	-29.285	-9.163	1.000000000
115.209	-22.158	-9.163	1.000000000
115.209	-15.031	-9.163	1.000000000
115.209	-7.905	-9.163	1.000000000
115.209	-0.778	-9.163	1.000000000
115.209	6.349	-9.163	1.000000000
115.209	13.476	-9.163	1.000000000
115.209	20.602	-9.163	1.000000000
115.209	27.729	-9.163	1.000000000
115.209	34.856	-9.163	1.000000000
115.209	41.983	-9.163	1.000000000
115.209	-39.975	-2.991	1.000000000
115.209	-32.848	-2.991	1.000000000
115.209	-25.721	-2.991	1.000000000
115.209	-18.595	-2.991	1.000000000
115.209	-11.468	-2.991	1.000000000
115.209	-4.341	-2.991	1.000000000
115.209	2.786	-2.991	1.000000000
115.209	9.912	-2.991	1.000000000
115.209	17.039	-2.991	1.000000000
115.209	24.166	-2.991	1.000000000
115.209	31.292	-2.991	1.000000000
115.209	38.419	-2.991	1.000000000
115.209	-36.412	3.181	1.000000000
115.209	-29.285	3.181	1.000000000
115.209	-15.031	3.181	1.000000000
115.209	-7.905	3.181	1.000000000
115.209	-0.778	3.181	1.000000000
115.209	6.349	3.181	1.000000000
115.209	13.476	3.181	1.000000000
115.209	20.602	3.181	1.000000000
115.209	27.729	3.181	1.000000000
115.209	34.856	3.181	1.000000000
115.209	41.983	3.181	1.000000000
115.209	-32.848	9.353	1.000000000
115.209	-25.721	9.353	1.000000000
115.209	-11.468	9.353	1.000000000
115.209	-4.341	9.353	1.000000000
115.209	2.786	9.353	1.000000000
115.209	9.912	9.353	1.000000000
115.209	17.039	9.353	1.000000000
115.209	24.166	9.353	1.000000000
115.209	31.292	9.353	1.000000000
115.209	38.419	9.353	1.000000000
115.209	-29.285	15.525	1.000000000
115.209	-22.158	15.525	1.000000000
115.209	-15.031	15.525	1.000000000
115.209	-7.905	15.525	1.000000000
115.209	-0.778	15.525	1.000000000
115.209	6.349	15.525	1.000000000
115.209	13.476	15.525	1.000000000
115.209	20.602	15.525	1.000000000
115.209	27.729	15.525	1.000000000
115.209	34.856	15.525	1.000000000
115.209	41.983	15.525	1.000000000
115.209	-32.848	21.697	1.000000000
115.209	-25.721	21.697	1.000000000
115.209	-18.595	21.697	1.000000000
115.209	-11.468	21.697	1.000000000
115.209	-4.341	21.697	1.000000000
115.209	2.786	21.697	1.000000000
115.209	9.912	21.697	1.000000000
115.209	17.039	21.697	1.000000000
115.209	24.166	21.697	1.000000000
115.209	31.292	21.697	1.000000000
115.209	38.419	21.697	1.000000000
115.209	-36.412	27.869	1.000000000
115.209	-29.285	27.869	1.000000000
115.209	-22.158	27.869	1.000000000
115.209	13.476	27.869	1.000000000
115.209	20.602	27.869	1.000000000
115.209	27.729	27.869	1.000000000
115.209	34.856	27.869	1.000000000
115.209	41.983	27.869	1.000000000
115.209	-32.848	34.041	1.000000000
115.209	-25.721	34.041	1.000000000
115.209	9.912	34.041	1.000000000
115.209	17.039	34.041	1.000000000
115.209	24.166	34.041	1.000000000
115.209	31.292	34.041	1.000000000
115.209	38.419	34.041	1.000000000
115.209	-29.285	40.213	1.000000000
115.209	13.476	40.213	1.000000000
115.209	20.602	40.213	1.000000000
115.209	27.729	40.213	1.000000000
115.209	34.856	40.213	1.000000000
115.209	-25.721	46.385	1.000000000
115.209	17.039	46.385	1.000000000
115.209	24.166	46.385	1.000000000
115.209	31.292	46.385	1.000000000
115.209	20.602	52.557	1.000000000
111.782	-26.267	-37.881	1.000000000
111.782	-18.984	-37.881	1.000000000
111.782	2.863	-37.881	1.000000000
111.782	10.146	-37.881	1.000000000
111.782	17.429	-37.881	1.000000000
111.782	-29.908	-31.574	1.000000000
111.782	-22.626	-31.574	1.000000000
111.782	-15.343	-31.574	1.000000000
111.782	-8.060	-31.574	1.000000000
111.782	-0.778	-31.574	1.000000000
111.782	6.505	-31.574	1.000000000
111.782	13.787	-31.574	1.000000000
111.782	21.070	-31.574	1.000000000
111.782	28.353	-31.574	1.000000000
111.782	-33.550	-25.267	1.000000000
111.782	-26.267	-25.267	1.000000000
111.782	-18.984	-25.267	1.000000000
111.782	-11.702	-25.267	1.000000000
111.782	-4.419	-25.267	1.000000000
111.782	2.863	-25.267	1.000000000
111.782	10.146	-25.267	1.000000000
111.782	17.429	-25.267	1.000000000
111.782	24.711	-25.267	1.000000000
111.782	31.994	-25.267	1.000000000
111.782	-37.191	-18.960	1.000000000
111.782	-29.908	-18.960	1.000000000
111.782	-22.626	-18.960	1.000000000
111.782	-15.343	-18.960	1.000000000
111.782	-8.060	-18.960	1.000000000
111.782	-0.778	-18.960	1.000000000
111.782	6.505	-18.960	1.000000000
111.782	13.787	-18.960	1.000000000
111.782	21.070	-18.960	1.000000000
111.782	28.353	-18.960	1.000000000
111.782	35.635	-18.960	1.000000000
111.782	-33.550	-12.653	1.000000000
111.782	-26.267	-12.653	1.000000000
111.782	-18.984	-12.653	1.000000000
111.782	-11.702	-12.653	1.000000000
111.782	-4.419	-12.653	1.000000000
111.782	2.863	-12.653	1.000000000
111.782	10.146	-12.653	1.000000000
111.782	17.429	-12.653	1.000000000
111.782	24.711	-12.653	1.000000000
111.782	31.994	-12.653	1.000000000
111.782	39.277	-12.653	1.000000000
111.782	-37.191	-6.347	1.000000000
111.782	-29.908	-6.347	1.000000000
111.782	-22.626	-6.347	1.000000000
111.782	-15.343	-6.347	1.000000000
111.782	-8.060	-6.347	1.000000000
111.782	-0.778	-6.347	1.000000000
111.782	6.505	-6.347	1.000000000
111.782	13.787	-6.347	1.000000000
111.782	21.070	-6.347	1.000000000
111.782	28.353	-6.347	1.000000000
111.782	35.635	-6.347	1.000000000
111.782	-33.550	-0.040	1.000000000
111.782	-26.267	-0.040	1.000000000
111.782	-18.984	-0.040	1.000000000
111.782	-11.702	-0.040	1.000000000
111.782	-4.419	-0.040	1.000000000
111.782	2.863	-0.040	1.000000000
111.782	10.146	-0.040	1.000000000
111.782	17.429	-0.040	1.000000000
111.782	24.711	-0.040	1.000000000
111.782	31.994	-0.040	1.000000000
111.782	39.277	-0.040	1.000000000
111.782	-29.908	6.267	1.000000000
111.782	-22.626	6.267	1.000000000
111.782	-15.343	6.267	1.000000000
111.782	-8.060	6.267	1.000000000
111.782	-0.778	6.267	1.000000000
111.782	6.505	6.267	1.000000000
111.782	13.787	6.267	1.000000000
111.782	21.070	6.267	1.000000000
111.782	28.353	6.267	1.000000000
111.782	35.635	6.267	1.000000000
111.782	-33.550	12.574	1.000000000
111.782	-26.267	12.574	1.000000000
111.782	-18.984	12.574	1.000000000
111.782	-11.702	12.574	1.000000000
111.782	-4.419	12.574	1.000000000
111.782	2.863	12.574	1.000000000
111.782	10.146	12.574	1.000000000
111.782	17.429	12.574	1.000000000
111.782	24.711	12.574	1.000000000
111.782	31.994	12.574	1.000000000
111.782	39.277	12.574	1.000000000
111.782	-22.626	18.881	1.000000000
111.782	-15.343	18.881	1.000000000
111.782	-8.060	18.881	1.000000000
111.782	-0.778	18.881	1.000000000
111.782	6.505	18.881	1.000000000
111.782	13.787	18.881	1.000000000
111.782	21.070	18.881	1.000000000
111.782	28.353	18.881	1.000000000
111.782	35.635	18.881	1.000000000
111.782	42.918	18.881	1.000000000
111.782	-26.267	25.188	1.000000000
111.782	-18.984	25.188	1.000000000
111.782	-11.702	25.188	1.000000000
111.782	-4.419	25.188	1.000000000
111.782	2.863	25.188	1.000000000
111.782	10.146	25.188	1.000000000
111.782	17.429	25.188	1.000000000
111.782	24.711	25.188	1.000000000
111.782	31.994	25.188	1.000000000
111.782	39.277	25.188	1.000000000
111.782	-29.908	31.495	1.000000000
111.782	-22.626	31.495	1.000000000
111.782	-15.343	31.495	1.000000000
111.782	-8.060	31.495	1.000000000
111.782	6.505	31.495	1.000000000
111.782	13.787	31.495	1.000000000
111.782	21.070	31.495	1.000000000
111.782	28.353	31.495	1.000000000
111.782	35.635	31.495	1.000000000
111.782	-26.267	37.802	1.000000000
111.782	-18.984	37.802	1.000000000
111.782	10.146	37.802	1.000000000
111.782	17.429	37.802	1.000000000
111.782	24.711	37.802	1.000000000
111.782	31.994	37.802	1.000000000
111.782	39.277	37.802	1.000000000
111.782	-22.626	44.109	1.000000000
111.782	-15.343	44.109	1.000000000
111.782	13.787	44.109	1.000000000
111.782	21.070	44.109	1.000000000
111.782	28.353	44.109	1.000000000
111.782	-18.984	50.416	1.000000000
108.295	17.973	-39.202	1.000000000
108.295	25.474	-39.202	1.000000000
108.295	-45.781	-32.706	1.000000000
108.295	-38.280	-32.706	1.000000000
108.295	-30.780	-32.706	1.000000000
108.295	-23.279	-32.706	1.000000000
108.295	-15.779	-32.706	1.000000000
108.295	-8.278	-32.706	1.000000000
108.295	-0.778	-32.706	1.000000000
108.295	6.723	-32.706	1.000000000
108.295	14.223	-32.706	1.000000000
108.295	-34.530	-26.211	1.000000000
108.295	-27.030	-26.211	1.000000000
108.295	-19.529	-26.211	1.000000000
108.295	-12.029	-26.211	1.000000000
108.295	-4.528	-26.211	1.000000000
108.295	2.972	-26.211	1.000000000
108.295	10.473	-26.211	1.000000000
108.295	17.973	-26.211	1.000000000
108.295	25.474	-26.211	1.000000000
108.295	-30.780	-19.715	1.000000000
108.295	-23.279	-19.715	1.000000000
108.295	-15.779	-19.715	1.000000000
108.295	-8.278	-19.715	1.000000000
108.295	-0.778	-19.715	1.000000000
108.295	6.723	-19.715	1.000000000
108.295	14.223	-19.715	1.000000000
108.295	21.724	-19.715	1.000000000
108.295	29.224	-19.715	1.000000000
108.295	-27.030	-13.220	1.000000000
108.295	-19.529	-13.220	1.000000000
108.295	-12.029	-13.220	1.000000000
108.295	-4.528	-13.220	1.000000000
108.295	2.972	-13.220	1.000000000
108.295	10.473	-13.220	1.000000000
108.295	17.973	-13.220	1.000000000
108.295	25.474	-13.220	1.000000000
108.295	32.974	-13.220	1.000000000
108.295	-30.780	-6.724	1.000000000
108.295	-23.279	-6.724	1.000000000
108.295	-15.779	-6.724	1.000000000
108.295	-8.278	-6.724	1.000000000
108.295	-0.778	-6.724	1.000000000
108.295	6.723	-6.724	1.000000000
108.295	14.223	-6.724	1.000000000
108.295	21.724	-6.724	1.000000000
108.295	29.224	-6.724	1.000000000
108.295	36.725	-6.724	1.000000000
108.295	-34.530	-0.228	1.000000000
108.295	-27.030	-0.228	1.000000000
108.295	-19.529	-0.228	1.000000000
108.295	-12.029	-0.228	1.000000000
108.295	-4.528	-0.228	1.000000000
108.295	2.972	-0.228	1.000000000
108.295	10.473	-0.228	1.000000000
108.295	17.973	-0.228	1.000000000
108.295	25.474	-0.228	1.000000000
108.295	32.974	-0.228	1.000000000
108.295	-30.780	6.267	1.000000000
108.295	-23.279	6.267	1.000000000
108.295	-15.779	6.267	1.000000000
108.295	-8.278	6.267	1.000000000
108.295	-0.778	6.267	1.000000000
108.295	6.723	6.267	1.000000000
108.295	14.223	6.267	1.000000000
108.295	21.724	6.267	1.000000000
108.295	29.224	6.267	1.000000000
108.295	36.725	6.267	1.000000000
108.295	-19.529	12.763	1.000000000
108.295	-12.029	12.763	1.000000000
108.295	-4.528	12.763	1.000000000
108.295	2.972	12.763	1.000000000
108.295	10.473	12.763	1.000000000
108.295	17.973	12.763	1.000000000
108.295	25.474	12.763	1.000000000
108.295	32.974	12.763	1.000000000
108.295	40.475	12.763	1.000000000
108.295	-23.279	19.259	1.000000000
108.295	-15.779	19.259	1.000000000
108.295	-8.278	19.259	1.000000000
108.295	-0.778	19.259	1.000000000
108.295	6.723	19.259	1.000000000
108.295	14.223	19.259	1.000000000
108.295	21.724	19.259	1.000000000
108.295	29.224	19.259	1.000000000
108.295	36.725	19.259	1.000000000
108.295	-27.030	25.754	1.000000000
108.295	-19.529	25.754	1.000000000
108.295	-12.029	25.754	1.000000000
108.295	-4.528	25.754	1.000000000
108.295	2.972	25.754	1.000000000
108.295	10.473	25.754	1.000000000
108.295	17.973	25.754	1.000000000
108.295	25.474	25.754	1.000000000
108.295	32.974	25.754	1.000000000
108.295	40.475	25.754	1.000000000
108.295	-23.279	32.250	1.000000000
108.295	-15.779	32.250	1.000000000
108.295	-8.278	32.250	1.000000000
108.295	-0.778	32.250	1.000000000
108.295	6.723	32.250	1.000000000
108.295	14.223	32.250	1.000000000
108.295	21.724	32.250	1.000000000
108.295	29.224	32.250	1.000000000
108.295	36.725	32.250	1.000000000
108.295	-19.529	38.745	1.000000000
108.295	-12.029	38.745	1.000000000
108.295	-4.528	38.745	1.000000000
108.295	10.473	38.745	1.000000000
108.295	17.973	38.745	1.000000000
108.295	25.474	38.745	1.000000000
108.295	32.974	38.745	1.000000000
108.295	-15.779	45.241	1.000000000
108.295	-0.778	45.241	1.000000000
108.295	6.723	45.241	1.000000000
108.295	14.223	45.241	1.000000000
108.295	21.724	45.241	1.000000000
108.295	29.224	45.241	1.000000000
108.295	-4.528	51.737	1.000000000
104.765	-28.164	-31.003	1.000000000
104.765	10.959	-31.003	1.000000000
104.765	-16.427	-24.226	1.000000000
104.765	-8.603	-24.226	1.000000000
104.765	-0.778	-24.226	1.000000000
104.765	7.047	-24.226	1.000000000
104.765	14.871	-24.226	1.000000000
104.765	-20.340	-17.450	1.000000000
104.765	-12.515	-17.450	1.000000000
104.765	-4.690	-17.450	1.000000000
104.765	3.134	-17.450	1.000000000
104.765	10.959	-17.450	1.000000000
104.765	18.784	-17.450	1.000000000
104.765	26.608	-17.450	1.000000000
104.765	-16.427	-10.674	1.000000000
104.765	-8.603	-10.674	1.000000000
104.765	-0.778	-10.674	1.000000000
104.765	7.047	-10.674	1.000000000
104.765	14.871	-10.674	1.000000000
104.765	22.696	-10.674	1.000000000
104.765	-20.340	-3.897	1.000000000
104.765	-12.515	-3.897	1.000000000
104.765	-4.690	-3.897	1.000000000
104.765	3.134	-3.897	1.000000000
104.765	10.959	-3.897	1.000000000
104.765	26.608	-3.897	1.000000000
104.765	-24.252	2.879	1.000000000
104.765	-16.427	2.879	1.000000000
104.765	-8.603	2.879	1.000000000
104.765	-0.778	2.879	1.000000000
104.765	7.047	2.879	1.000000000
104.765	14.871	2.879	1.000000000
104.765	22.696	2.879	1.000000000
104.765	30.521	2.879	1.000000000
104.765	-12.515	9.656	1.000000000
104.765	-4.690	9.656	1.000000000
104.765	3.134	9.656	1.000000000
104.765	10.959	9.656	1.000000000
104.765	18.784	9.656	1.000000000
104.765	26.608	9.656	1.000000000
104.765	34.433	9.656	1.000000000
104.765	-16.427	16.432	1.000000000
104.765	-8.603	16.432	1.000000000
104.765	-0.778	16.432	1.000000000
104.765	7.047	16.432	1.000000000
104.765	14.871	16.432	1.000000000
104.765	22.696	16.432	1.000000000
104.765	30.521	16.432	1.000000000
104.765	-12.515	23.208	1.000000000
104.765	-4.690	23.208	1.000000000
104.765	3.134	23.208	1.000000000
104.765	10.959	23.208	1.000000000
104.765	18.784	23.208	1.000000000
104.765	26.608	23.208	1.000000000
104.765	-8.603	29.985	1.000000000
104.765	-0.778	29.985	1.000000000
104.765	7.047	29.985	1.000000000
104.765	14.871	29.985	1.000000000
104.765	22.696	29.985	1.000000000
104.765	30.521	29.985	1.000000000
104.765	-12.515	36.761	1.000000000
104.765	-4.690	36.761	1.000000000
104.765	3.134	36.761	1.000000000
104.765	10.959	36.761	1.000000000
104.765	26.608	36.761	1.000000000
104.765	-8.603	43.537	1.000000000
104.765	7.047	43.537	1.000000000
104.765	14.871	43.537	1.000000000
101.201	-0.778	-11.471	1.000000000
101.201	-0.778	2.720	1.000000000
101.201	7.415	2.720	1.000000000
101.201	15.608	2.720	1.000000000
101.201	-4.874	9.815	1.000000000
101.201	3.319	9.815	1.000000000
101.201	11.511	9.815	1.000000000
101.201	19.704	9.815	1.000000000
101.201	-0.778	16.910	1.000000000
101.201	7.415	16.910	1.000000000
101.201	15.608	16.910	1.000000000
101.201	3.319	24.005	1.000000000
101.201	11.511	24.005	1.000000000
101.201	7.415	31.101	1.000000000
101.201	3.319	38.196	1.000000000
