# patient_id 055-69-54
# patient_first_name DOROTHY
# patient_middle_initial _
# patient_last_name CULLEN
# astroid_id 74069
# course_name 1st
# beam_name 90deg1
# gantry 90.0
# couch_rotation -0.0
# gigaproton_total 2636
# rows_total 2636
# E(MeV) X(mm) Y(mm) N(Gp)
171.760	-10.815	-5.409	1.000000000
171.760	-10.815	3.899	1.000000000
171.760	-8.128	8.552	1.000000000
171.760	-2.755	8.552	1.000000000
171.760	-5.442	13.206	1.000000000
171.760	-0.068	13.206	1.000000000
171.760	5.306	13.206	1.000000000
171.760	-2.755	17.860	1.000000000
171.760	2.619	17.860	1.000000000
169.294	-8.234	-10.222	1.000000000
169.294	-16.373	-5.523	1.000000000
169.294	-10.947	-5.523	1.000000000
169.294	-5.520	-5.523	1.000000000
169.294	-13.660	-0.823	1.000000000
169.294	-8.234	-0.823	1.000000000
169.294	-2.807	-0.823	1.000000000
169.294	-16.373	3.876	1.000000000
169.294	-10.947	3.876	1.000000000
169.294	-5.520	3.876	1.000000000
169.294	-0.094	3.876	1.000000000
169.294	-13.660	8.575	1.000000000
169.294	-8.234	8.575	1.000000000
169.294	-2.807	8.575	1.000000000
169.294	2.619	8.575	1.000000000
169.294	8.045	8.575	1.000000000
169.294	-10.947	13.274	1.000000000
169.294	-5.520	13.274	1.000000000
169.294	-0.094	13.274	1.000000000
169.294	5.332	13.274	1.000000000
169.294	-2.807	17.974	1.000000000
169.294	2.619	17.974	1.000000000
169.294	8.045	17.974	1.000000000
169.294	-0.094	22.673	1.000000000
166.844	-11.087	-17.514	1.000000000
166.844	-19.311	-12.766	1.000000000
166.844	-13.828	-12.766	1.000000000
166.844	-8.346	-12.766	1.000000000
166.844	-11.087	-8.018	1.000000000
166.844	-5.605	-8.018	1.000000000
166.844	-13.828	-3.270	1.000000000
166.844	-8.346	-3.270	1.000000000
166.844	-2.863	-3.270	1.000000000
166.844	2.619	-3.270	1.000000000
166.844	8.101	-3.270	1.000000000
166.844	-16.569	1.478	1.000000000
166.844	-11.087	1.478	1.000000000
166.844	-5.605	1.478	1.000000000
166.844	-0.122	1.478	1.000000000
166.844	5.360	1.478	1.000000000
166.844	10.843	1.478	1.000000000
166.844	16.325	1.478	1.000000000
166.844	-13.828	6.226	1.000000000
166.844	-8.346	6.226	1.000000000
166.844	-2.863	6.226	1.000000000
166.844	2.619	6.226	1.000000000
166.844	8.101	6.226	1.000000000
166.844	13.584	6.226	1.000000000
166.844	-16.569	10.973	1.000000000
166.844	-11.087	10.973	1.000000000
166.844	-5.605	10.973	1.000000000
166.844	-0.122	10.973	1.000000000
166.844	5.360	10.973	1.000000000
166.844	10.843	10.973	1.000000000
166.844	-13.828	15.721	1.000000000
166.844	-8.346	15.721	1.000000000
166.844	-2.863	15.721	1.000000000
166.844	2.619	15.721	1.000000000
166.844	8.101	15.721	1.000000000
166.844	13.584	15.721	1.000000000
166.844	-5.605	20.469	1.000000000
166.844	-0.122	20.469	1.000000000
166.844	5.360	20.469	1.000000000
164.287	-19.558	-12.980	1.000000000
164.287	-14.013	-12.980	1.000000000
164.287	-8.469	-12.980	1.000000000
164.287	-2.925	-12.980	1.000000000
164.287	-22.330	-8.179	1.000000000
164.287	-16.785	-8.179	1.000000000
164.287	-11.241	-8.179	1.000000000
164.287	-5.697	-8.179	1.000000000
164.287	-0.153	-8.179	1.000000000
164.287	5.391	-8.179	1.000000000
164.287	-19.558	-3.377	1.000000000
164.287	-14.013	-3.377	1.000000000
164.287	-8.469	-3.377	1.000000000
164.287	-2.925	-3.377	1.000000000
164.287	2.619	-3.377	1.000000000
164.287	8.163	-3.377	1.000000000
164.287	13.707	-3.377	1.000000000
164.287	-16.785	1.424	1.000000000
164.287	-11.241	1.424	1.000000000
164.287	-5.697	1.424	1.000000000
164.287	-0.153	1.424	1.000000000
164.287	5.391	1.424	1.000000000
164.287	10.935	1.424	1.000000000
164.287	16.479	1.424	1.000000000
164.287	-25.102	6.226	1.000000000
164.287	-14.013	6.226	1.000000000
164.287	-8.469	6.226	1.000000000
164.287	-2.925	6.226	1.000000000
164.287	2.619	6.226	1.000000000
164.287	8.163	6.226	1.000000000
164.287	13.707	6.226	1.000000000
164.287	-16.785	11.027	1.000000000
164.287	-11.241	11.027	1.000000000
164.287	-5.697	11.027	1.000000000
164.287	-0.153	11.027	1.000000000
164.287	5.391	11.027	1.000000000
164.287	10.935	11.027	1.000000000
164.287	16.479	11.027	1.000000000
164.287	-19.558	15.828	1.000000000
164.287	-14.013	15.828	1.000000000
164.287	-8.469	15.828	1.000000000
164.287	-2.925	15.828	1.000000000
164.287	2.619	15.828	1.000000000
164.287	8.163	15.828	1.000000000
164.287	13.707	15.828	1.000000000
164.287	19.251	15.828	1.000000000
164.287	-5.697	20.630	1.000000000
164.287	-0.153	20.630	1.000000000
164.287	5.391	20.630	1.000000000
164.287	10.935	20.630	1.000000000
161.635	-22.641	-18.081	1.000000000
161.635	-19.834	-13.219	1.000000000
161.635	-14.221	-13.219	1.000000000
161.635	-8.607	-13.219	1.000000000
161.635	-2.994	-13.219	1.000000000
161.635	-22.641	-8.358	1.000000000
161.635	-17.027	-8.358	1.000000000
161.635	-11.414	-8.358	1.000000000
161.635	-5.801	-8.358	1.000000000
161.635	-0.188	-8.358	1.000000000
161.635	5.426	-8.358	1.000000000
161.635	11.039	-8.358	1.000000000
161.635	-31.061	-3.497	1.000000000
161.635	-25.447	-3.497	1.000000000
161.635	-19.834	-3.497	1.000000000
161.635	-14.221	-3.497	1.000000000
161.635	-8.607	-3.497	1.000000000
161.635	-2.994	-3.497	1.000000000
161.635	2.619	-3.497	1.000000000
161.635	8.232	-3.497	1.000000000
161.635	13.846	-3.497	1.000000000
161.635	-28.254	1.364	1.000000000
161.635	-22.641	1.364	1.000000000
161.635	-17.027	1.364	1.000000000
161.635	-11.414	1.364	1.000000000
161.635	-5.801	1.364	1.000000000
161.635	-0.188	1.364	1.000000000
161.635	5.426	1.364	1.000000000
161.635	11.039	1.364	1.000000000
161.635	16.652	1.364	1.000000000
161.635	-25.447	6.226	1.000000000
161.635	-19.834	6.226	1.000000000
161.635	-14.221	6.226	1.000000000
161.635	-8.607	6.226	1.000000000
161.635	-2.994	6.226	1.000000000
161.635	2.619	6.226	1.000000000
161.635	8.232	6.226	1.000000000
161.635	13.846	6.226	1.000000000
161.635	19.459	6.226	1.000000000
161.635	-22.641	11.087	1.000000000
161.635	-17.027	11.087	1.000000000
161.635	-11.414	11.087	1.000000000
161.635	-5.801	11.087	1.000000000
161.635	-0.188	11.087	1.000000000
161.635	5.426	11.087	1.000000000
161.635	11.039	11.087	1.000000000
161.635	16.652	11.087	1.000000000
161.635	-19.834	15.948	1.000000000
161.635	-14.221	15.948	1.000000000
161.635	-8.607	15.948	1.000000000
161.635	-2.994	15.948	1.000000000
161.635	2.619	15.948	1.000000000
161.635	8.232	15.948	1.000000000
161.635	13.846	15.948	1.000000000
161.635	19.459	15.948	1.000000000
161.635	-17.027	20.809	1.000000000
161.635	-11.414	20.809	1.000000000
161.635	-5.801	20.809	1.000000000
161.635	-0.188	20.809	1.000000000
161.635	5.426	20.809	1.000000000
161.635	11.039	20.809	1.000000000
161.635	2.619	25.670	1.000000000
161.635	-17.027	30.532	1.000000000
161.635	-11.414	30.532	1.000000000
161.635	5.426	30.532	1.000000000
158.993	-22.939	-18.368	1.000000000
158.993	-5.900	-18.368	1.000000000
158.993	-25.779	-13.449	1.000000000
158.993	-20.099	-13.449	1.000000000
158.993	-14.420	-13.449	1.000000000
158.993	-8.740	-13.449	1.000000000
158.993	-3.061	-13.449	1.000000000
158.993	2.619	-13.449	1.000000000
158.993	-28.619	-8.530	1.000000000
158.993	-22.939	-8.530	1.000000000
158.993	-17.259	-8.530	1.000000000
158.993	-11.580	-8.530	1.000000000
158.993	-5.900	-8.530	1.000000000
158.993	-0.221	-8.530	1.000000000
158.993	5.459	-8.530	1.000000000
158.993	11.138	-8.530	1.000000000
158.993	16.818	-8.530	1.000000000
158.993	-31.458	-3.612	1.000000000
158.993	-25.779	-3.612	1.000000000
158.993	-20.099	-3.612	1.000000000
158.993	-14.420	-3.612	1.000000000
158.993	-8.740	-3.612	1.000000000
158.993	-3.061	-3.612	1.000000000
158.993	2.619	-3.612	1.000000000
158.993	8.299	-3.612	1.000000000
158.993	13.978	-3.612	1.000000000
158.993	19.658	-3.612	1.000000000
158.993	-34.298	1.307	1.000000000
158.993	-28.619	1.307	1.000000000
158.993	-22.939	1.307	1.000000000
158.993	-17.259	1.307	1.000000000
158.993	-11.580	1.307	1.000000000
158.993	-5.900	1.307	1.000000000
158.993	-0.221	1.307	1.000000000
158.993	5.459	1.307	1.000000000
158.993	11.138	1.307	1.000000000
158.993	16.818	1.307	1.000000000
158.993	-31.458	6.226	1.000000000
158.993	-25.779	6.226	1.000000000
158.993	-20.099	6.226	1.000000000
158.993	-14.420	6.226	1.000000000
158.993	-8.740	6.226	1.000000000
158.993	-3.061	6.226	1.000000000
158.993	2.619	6.226	1.000000000
158.993	8.299	6.226	1.000000000
158.993	13.978	6.226	1.000000000
158.993	19.658	6.226	1.000000000
158.993	-28.619	11.144	1.000000000
158.993	-22.939	11.144	1.000000000
158.993	-17.259	11.144	1.000000000
158.993	-11.580	11.144	1.000000000
158.993	-5.900	11.144	1.000000000
158.993	-0.221	11.144	1.000000000
158.993	5.459	11.144	1.000000000
158.993	11.138	11.144	1.000000000
158.993	16.818	11.144	1.000000000
158.993	-31.458	16.063	1.000000000
158.993	-25.779	16.063	1.000000000
158.993	-20.099	16.063	1.000000000
158.993	-14.420	16.063	1.000000000
158.993	-8.740	16.063	1.000000000
158.993	-3.061	16.063	1.000000000
158.993	2.619	16.063	1.000000000
158.993	8.299	16.063	1.000000000
158.993	13.978	16.063	1.000000000
158.993	19.658	16.063	1.000000000
158.993	-22.939	20.981	1.000000000
158.993	-17.259	20.981	1.000000000
158.993	-11.580	20.981	1.000000000
158.993	-5.900	20.981	1.000000000
158.993	-0.221	20.981	1.000000000
158.993	5.459	20.981	1.000000000
158.993	11.138	20.981	1.000000000
158.993	16.818	20.981	1.000000000
158.993	-20.099	25.900	1.000000000
158.993	-14.420	25.900	1.000000000
158.993	2.619	25.900	1.000000000
158.993	8.299	25.900	1.000000000
158.993	-17.259	30.819	1.000000000
158.993	-11.580	30.819	1.000000000
158.993	-5.900	30.819	1.000000000
158.993	5.459	30.819	1.000000000
158.993	11.138	30.819	1.000000000
158.993	-8.740	35.737	1.000000000
158.993	-3.061	35.737	1.000000000
158.993	-22.939	40.656	1.000000000
156.374	-26.106	-23.627	1.000000000
156.374	-14.616	-23.627	1.000000000
156.374	-23.234	-18.651	1.000000000
156.374	-17.489	-18.651	1.000000000
156.374	-11.744	-18.651	1.000000000
156.374	-5.999	-18.651	1.000000000
156.374	-0.253	-18.651	1.000000000
156.374	-26.106	-13.676	1.000000000
156.374	-20.361	-13.676	1.000000000
156.374	-14.616	-13.676	1.000000000
156.374	-8.871	-13.676	1.000000000
156.374	-3.126	-13.676	1.000000000
156.374	2.619	-13.676	1.000000000
156.374	8.364	-13.676	1.000000000
156.374	-28.979	-8.701	1.000000000
156.374	-23.234	-8.701	1.000000000
156.374	-17.489	-8.701	1.000000000
156.374	-11.744	-8.701	1.000000000
156.374	-5.999	-8.701	1.000000000
156.374	-0.253	-8.701	1.000000000
156.374	5.492	-8.701	1.000000000
156.374	11.237	-8.701	1.000000000
156.374	16.982	-8.701	1.000000000
156.374	-37.597	-3.725	1.000000000
156.374	-31.851	-3.725	1.000000000
156.374	-26.106	-3.725	1.000000000
156.374	-20.361	-3.725	1.000000000
156.374	-14.616	-3.725	1.000000000
156.374	-8.871	-3.725	1.000000000
156.374	-3.126	-3.725	1.000000000
156.374	2.619	-3.725	1.000000000
156.374	8.364	-3.725	1.000000000
156.374	14.109	-3.725	1.000000000
156.374	19.854	-3.725	1.000000000
156.374	-40.469	1.250	1.000000000
156.374	-34.724	1.250	1.000000000
156.374	-28.979	1.250	1.000000000
156.374	-23.234	1.250	1.000000000
156.374	-17.489	1.250	1.000000000
156.374	-11.744	1.250	1.000000000
156.374	-5.999	1.250	1.000000000
156.374	-0.253	1.250	1.000000000
156.374	5.492	1.250	1.000000000
156.374	11.237	1.250	1.000000000
156.374	16.982	1.250	1.000000000
156.374	22.727	1.250	1.000000000
156.374	-37.597	6.226	1.000000000
156.374	-31.851	6.226	1.000000000
156.374	-26.106	6.226	1.000000000
156.374	-20.361	6.226	1.000000000
156.374	-14.616	6.226	1.000000000
156.374	-8.871	6.226	1.000000000
156.374	-3.126	6.226	1.000000000
156.374	2.619	6.226	1.000000000
156.374	8.364	6.226	1.000000000
156.374	14.109	6.226	1.000000000
156.374	19.854	6.226	1.000000000
156.374	-40.469	11.201	1.000000000
156.374	-34.724	11.201	1.000000000
156.374	-28.979	11.201	1.000000000
156.374	-23.234	11.201	1.000000000
156.374	-17.489	11.201	1.000000000
156.374	-11.744	11.201	1.000000000
156.374	-5.999	11.201	1.000000000
156.374	-0.253	11.201	1.000000000
156.374	5.492	11.201	1.000000000
156.374	11.237	11.201	1.000000000
156.374	16.982	11.201	1.000000000
156.374	-37.597	16.176	1.000000000
156.374	-31.851	16.176	1.000000000
156.374	-26.106	16.176	1.000000000
156.374	-20.361	16.176	1.000000000
156.374	-14.616	16.176	1.000000000
156.374	-8.871	16.176	1.000000000
156.374	-3.126	16.176	1.000000000
156.374	2.619	16.176	1.000000000
156.374	8.364	16.176	1.000000000
156.374	14.109	16.176	1.000000000
156.374	19.854	16.176	1.000000000
156.374	-34.724	21.152	1.000000000
156.374	-28.979	21.152	1.000000000
156.374	-23.234	21.152	1.000000000
156.374	-17.489	21.152	1.000000000
156.374	-11.744	21.152	1.000000000
156.374	-5.999	21.152	1.000000000
156.374	-0.253	21.152	1.000000000
156.374	5.492	21.152	1.000000000
156.374	11.237	21.152	1.000000000
156.374	16.982	21.152	1.000000000
156.374	-26.106	26.127	1.000000000
156.374	-20.361	26.127	1.000000000
156.374	-14.616	26.127	1.000000000
156.374	-8.871	26.127	1.000000000
156.374	2.619	26.127	1.000000000
156.374	8.364	26.127	1.000000000
156.374	14.109	26.127	1.000000000
156.374	-17.489	31.102	1.000000000
156.374	-11.744	31.102	1.000000000
156.374	-5.999	31.102	1.000000000
156.374	-0.253	31.102	1.000000000
156.374	5.492	31.102	1.000000000
156.374	11.237	31.102	1.000000000
156.374	-8.871	36.078	1.000000000
156.374	-3.126	36.078	1.000000000
156.374	2.619	36.078	1.000000000
156.374	8.364	36.078	1.000000000
156.374	-28.979	41.053	1.000000000
156.374	-23.234	41.053	1.000000000
156.374	-5.999	41.053	1.000000000
156.374	-0.253	41.053	1.000000000
156.374	28.472	41.053	1.000000000
156.374	34.217	41.053	1.000000000
156.374	39.962	41.053	1.000000000
156.374	-31.851	46.029	1.000000000
156.374	-26.106	46.029	1.000000000
156.374	25.599	46.029	1.000000000
156.374	31.344	46.029	1.000000000
153.711	-29.357	-34.053	1.000000000
153.711	-29.357	-23.984	1.000000000
153.711	-23.543	-23.984	1.000000000
153.711	-17.729	-23.984	1.000000000
153.711	-11.915	-23.984	1.000000000
153.711	-26.450	-18.949	1.000000000
153.711	-20.636	-18.949	1.000000000
153.711	-14.822	-18.949	1.000000000
153.711	-9.008	-18.949	1.000000000
153.711	-3.195	-18.949	1.000000000
153.711	2.619	-18.949	1.000000000
153.711	-29.357	-13.914	1.000000000
153.711	-23.543	-13.914	1.000000000
153.711	-17.729	-13.914	1.000000000
153.711	-11.915	-13.914	1.000000000
153.711	-6.102	-13.914	1.000000000
153.711	-0.288	-13.914	1.000000000
153.711	5.526	-13.914	1.000000000
153.711	11.340	-13.914	1.000000000
153.711	-38.077	-8.879	1.000000000
153.711	-32.264	-8.879	1.000000000
153.711	-26.450	-8.879	1.000000000
153.711	-20.636	-8.879	1.000000000
153.711	-14.822	-8.879	1.000000000
153.711	-9.008	-8.879	1.000000000
153.711	-3.195	-8.879	1.000000000
153.711	2.619	-8.879	1.000000000
153.711	8.433	-8.879	1.000000000
153.711	14.247	-8.879	1.000000000
153.711	20.060	-8.879	1.000000000
153.711	-40.984	-3.844	1.000000000
153.711	-35.170	-3.844	1.000000000
153.711	-29.357	-3.844	1.000000000
153.711	-23.543	-3.844	1.000000000
153.711	-17.729	-3.844	1.000000000
153.711	-11.915	-3.844	1.000000000
153.711	-6.102	-3.844	1.000000000
153.711	-0.288	-3.844	1.000000000
153.711	5.526	-3.844	1.000000000
153.711	11.340	-3.844	1.000000000
153.711	17.153	-3.844	1.000000000
153.711	-43.891	1.191	1.000000000
153.711	-38.077	1.191	1.000000000
153.711	-32.264	1.191	1.000000000
153.711	-26.450	1.191	1.000000000
153.711	-20.636	1.191	1.000000000
153.711	-14.822	1.191	1.000000000
153.711	-9.008	1.191	1.000000000
153.711	-3.195	1.191	1.000000000
153.711	2.619	1.191	1.000000000
153.711	8.433	1.191	1.000000000
153.711	14.247	1.191	1.000000000
153.711	20.060	1.191	1.000000000
153.711	-40.984	6.226	1.000000000
153.711	-35.170	6.226	1.000000000
153.711	-29.357	6.226	1.000000000
153.711	-23.543	6.226	1.000000000
153.711	-17.729	6.226	1.000000000
153.711	-11.915	6.226	1.000000000
153.711	-6.102	6.226	1.000000000
153.711	-0.288	6.226	1.000000000
153.711	5.526	6.226	1.000000000
153.711	11.340	6.226	1.000000000
153.711	17.153	6.226	1.000000000
153.711	22.967	6.226	1.000000000
153.711	-43.891	11.260	1.000000000
153.711	-38.077	11.260	1.000000000
153.711	-32.264	11.260	1.000000000
153.711	-26.450	11.260	1.000000000
153.711	-20.636	11.260	1.000000000
153.711	-14.822	11.260	1.000000000
153.711	-9.008	11.260	1.000000000
153.711	-3.195	11.260	1.000000000
153.711	2.619	11.260	1.000000000
153.711	8.433	11.260	1.000000000
153.711	14.247	11.260	1.000000000
153.711	20.060	11.260	1.000000000
153.711	25.874	11.260	1.000000000
153.711	-40.984	16.295	1.000000000
153.711	-35.170	16.295	1.000000000
153.711	-29.357	16.295	1.000000000
153.711	-23.543	16.295	1.000000000
153.711	-17.729	16.295	1.000000000
153.711	-11.915	16.295	1.000000000
153.711	-6.102	16.295	1.000000000
153.711	-0.288	16.295	1.000000000
153.711	5.526	16.295	1.000000000
153.711	11.340	16.295	1.000000000
153.711	17.153	16.295	1.000000000
153.711	22.967	16.295	1.000000000
153.711	-38.077	21.330	1.000000000
153.711	-32.264	21.330	1.000000000
153.711	-26.450	21.330	1.000000000
153.711	-20.636	21.330	1.000000000
153.711	-14.822	21.330	1.000000000
153.711	-9.008	21.330	1.000000000
153.711	-3.195	21.330	1.000000000
153.711	2.619	21.330	1.000000000
153.711	8.433	21.330	1.000000000
153.711	14.247	21.330	1.000000000
153.711	20.060	21.330	1.000000000
153.711	-35.170	26.365	1.000000000
153.711	-29.357	26.365	1.000000000
153.711	-23.543	26.365	1.000000000
153.711	-17.729	26.365	1.000000000
153.711	-11.915	26.365	1.000000000
153.711	-6.102	26.365	1.000000000
153.711	-0.288	26.365	1.000000000
153.711	5.526	26.365	1.000000000
153.711	11.340	26.365	1.000000000
153.711	17.153	26.365	1.000000000
153.711	-43.891	31.400	1.000000000
153.711	-38.077	31.400	1.000000000
153.711	-32.264	31.400	1.000000000
153.711	-26.450	31.400	1.000000000
153.711	-20.636	31.400	1.000000000
153.711	-14.822	31.400	1.000000000
153.711	-9.008	31.400	1.000000000
153.711	-3.195	31.400	1.000000000
153.711	2.619	31.400	1.000000000
153.711	8.433	31.400	1.000000000
153.711	14.247	31.400	1.000000000
153.711	-40.984	36.435	1.000000000
153.711	-35.170	36.435	1.000000000
153.711	-29.357	36.435	1.000000000
153.711	-23.543	36.435	1.000000000
153.711	-17.729	36.435	1.000000000
153.711	-11.915	36.435	1.000000000
153.711	-6.102	36.435	1.000000000
153.711	-0.288	36.435	1.000000000
153.711	5.526	36.435	1.000000000
153.711	11.340	36.435	1.000000000
153.711	28.781	36.435	1.000000000
153.711	34.595	36.435	1.000000000
153.711	40.409	36.435	1.000000000
153.711	-38.077	41.470	1.000000000
153.711	-32.264	41.470	1.000000000
153.711	-26.450	41.470	1.000000000
153.711	-20.636	41.470	1.000000000
153.711	-14.822	41.470	1.000000000
153.711	-3.195	41.470	1.000000000
153.711	2.619	41.470	1.000000000
153.711	8.433	41.470	1.000000000
153.711	25.874	41.470	1.000000000
153.711	31.688	41.470	1.000000000
153.711	-35.170	46.504	1.000000000
153.711	-29.357	46.504	1.000000000
153.711	-23.543	46.504	1.000000000
153.711	22.967	46.504	1.000000000
153.711	28.781	46.504	1.000000000
153.711	-26.450	51.539	1.000000000
150.998	-32.706	-37.113	1.000000000
150.998	-26.818	-37.113	1.000000000
150.998	-20.931	-37.113	1.000000000
150.998	-15.043	-37.113	1.000000000
150.998	-29.762	-32.014	1.000000000
150.998	-23.874	-32.014	1.000000000
150.998	-26.818	-26.916	1.000000000
150.998	-20.931	-26.916	1.000000000
150.998	-29.762	-21.817	1.000000000
150.998	-23.874	-21.817	1.000000000
150.998	-17.987	-21.817	1.000000000
150.998	-12.100	-21.817	1.000000000
150.998	-6.212	-21.817	1.000000000
150.998	-0.325	-21.817	1.000000000
150.998	-32.706	-16.718	1.000000000
150.998	-26.818	-16.718	1.000000000
150.998	-20.931	-16.718	1.000000000
150.998	-15.043	-16.718	1.000000000
150.998	-9.156	-16.718	1.000000000
150.998	-3.268	-16.718	1.000000000
150.998	2.619	-16.718	1.000000000
150.998	8.506	-16.718	1.000000000
150.998	-41.537	-11.620	1.000000000
150.998	-35.649	-11.620	1.000000000
150.998	-29.762	-11.620	1.000000000
150.998	-23.874	-11.620	1.000000000
150.998	-17.987	-11.620	1.000000000
150.998	-12.100	-11.620	1.000000000
150.998	-6.212	-11.620	1.000000000
150.998	-0.325	-11.620	1.000000000
150.998	5.563	-11.620	1.000000000
150.998	11.450	-11.620	1.000000000
150.998	17.338	-11.620	1.000000000
150.998	-44.480	-6.521	1.000000000
150.998	-38.593	-6.521	1.000000000
150.998	-32.706	-6.521	1.000000000
150.998	-26.818	-6.521	1.000000000
150.998	-20.931	-6.521	1.000000000
150.998	-15.043	-6.521	1.000000000
150.998	-9.156	-6.521	1.000000000
150.998	-3.268	-6.521	1.000000000
150.998	2.619	-6.521	1.000000000
150.998	8.506	-6.521	1.000000000
150.998	14.394	-6.521	1.000000000
150.998	20.281	-6.521	1.000000000
150.998	-41.537	-1.422	1.000000000
150.998	-35.649	-1.422	1.000000000
150.998	-29.762	-1.422	1.000000000
150.998	-23.874	-1.422	1.000000000
150.998	-17.987	-1.422	1.000000000
150.998	-12.100	-1.422	1.000000000
150.998	-6.212	-1.422	1.000000000
150.998	-0.325	-1.422	1.000000000
150.998	5.563	-1.422	1.000000000
150.998	11.450	-1.422	1.000000000
150.998	17.338	-1.422	1.000000000
150.998	23.225	-1.422	1.000000000
150.998	-44.480	3.676	1.000000000
150.998	-38.593	3.676	1.000000000
150.998	-32.706	3.676	1.000000000
150.998	-26.818	3.676	1.000000000
150.998	-20.931	3.676	1.000000000
150.998	-15.043	3.676	1.000000000
150.998	-9.156	3.676	1.000000000
150.998	-3.268	3.676	1.000000000
150.998	2.619	3.676	1.000000000
150.998	8.506	3.676	1.000000000
150.998	14.394	3.676	1.000000000
150.998	20.281	3.676	1.000000000
150.998	26.169	3.676	1.000000000
150.998	-41.537	8.775	1.000000000
150.998	-35.649	8.775	1.000000000
150.998	-29.762	8.775	1.000000000
150.998	-23.874	8.775	1.000000000
150.998	-17.987	8.775	1.000000000
150.998	-12.100	8.775	1.000000000
150.998	-6.212	8.775	1.000000000
150.998	-0.325	8.775	1.000000000
150.998	5.563	8.775	1.000000000
150.998	11.450	8.775	1.000000000
150.998	17.338	8.775	1.000000000
150.998	23.225	8.775	1.000000000
150.998	29.113	8.775	1.000000000
150.998	-44.480	13.874	1.000000000
150.998	-38.593	13.874	1.000000000
150.998	-32.706	13.874	1.000000000
150.998	-26.818	13.874	1.000000000
150.998	-20.931	13.874	1.000000000
150.998	-15.043	13.874	1.000000000
150.998	-9.156	13.874	1.000000000
150.998	-3.268	13.874	1.000000000
150.998	2.619	13.874	1.000000000
150.998	8.506	13.874	1.000000000
150.998	14.394	13.874	1.000000000
150.998	20.281	13.874	1.000000000
150.998	26.169	13.874	1.000000000
150.998	32.056	13.874	1.000000000
150.998	-41.537	18.972	1.000000000
150.998	-35.649	18.972	1.000000000
150.998	-29.762	18.972	1.000000000
150.998	-23.874	18.972	1.000000000
150.998	-17.987	18.972	1.000000000
150.998	-12.100	18.972	1.000000000
150.998	-6.212	18.972	1.000000000
150.998	-0.325	18.972	1.000000000
150.998	5.563	18.972	1.000000000
150.998	11.450	18.972	1.000000000
150.998	17.338	18.972	1.000000000
150.998	23.225	18.972	1.000000000
150.998	46.775	18.972	1.000000000
150.998	-38.593	24.071	1.000000000
150.998	-32.706	24.071	1.000000000
150.998	-26.818	24.071	1.000000000
150.998	-20.931	24.071	1.000000000
150.998	-15.043	24.071	1.000000000
150.998	-9.156	24.071	1.000000000
150.998	-3.268	24.071	1.000000000
150.998	2.619	24.071	1.000000000
150.998	8.506	24.071	1.000000000
150.998	14.394	24.071	1.000000000
150.998	20.281	24.071	1.000000000
150.998	26.169	24.071	1.000000000
150.998	43.831	24.071	1.000000000
150.998	-41.537	29.170	1.000000000
150.998	-35.649	29.170	1.000000000
150.998	-29.762	29.170	1.000000000
150.998	-23.874	29.170	1.000000000
150.998	-17.987	29.170	1.000000000
150.998	-12.100	29.170	1.000000000
150.998	-6.212	29.170	1.000000000
150.998	-0.325	29.170	1.000000000
150.998	5.563	29.170	1.000000000
150.998	11.450	29.170	1.000000000
150.998	17.338	29.170	1.000000000
150.998	35.000	29.170	1.000000000
150.998	40.887	29.170	1.000000000
150.998	-38.593	34.268	1.000000000
150.998	-32.706	34.268	1.000000000
150.998	-26.818	34.268	1.000000000
150.998	-20.931	34.268	1.000000000
150.998	-15.043	34.268	1.000000000
150.998	-9.156	34.268	1.000000000
150.998	-3.268	34.268	1.000000000
150.998	2.619	34.268	1.000000000
150.998	8.506	34.268	1.000000000
150.998	14.394	34.268	1.000000000
150.998	20.281	34.268	1.000000000
150.998	26.169	34.268	1.000000000
150.998	32.056	34.268	1.000000000
150.998	37.944	34.268	1.000000000
150.998	-35.649	39.367	1.000000000
150.998	-29.762	39.367	1.000000000
150.998	-23.874	39.367	1.000000000
150.998	-17.987	39.367	1.000000000
150.998	-12.100	39.367	1.000000000
150.998	-6.212	39.367	1.000000000
150.998	-0.325	39.367	1.000000000
150.998	5.563	39.367	1.000000000
150.998	11.450	39.367	1.000000000
150.998	17.338	39.367	1.000000000
150.998	23.225	39.367	1.000000000
150.998	29.113	39.367	1.000000000
150.998	-26.818	44.466	1.000000000
150.998	-20.931	44.466	1.000000000
150.998	-15.043	44.466	1.000000000
150.998	-9.156	44.466	1.000000000
150.998	-3.268	44.466	1.000000000
150.998	2.619	44.466	1.000000000
150.998	8.506	44.466	1.000000000
150.998	20.281	44.466	1.000000000
150.998	26.169	44.466	1.000000000
150.998	-12.100	49.564	1.000000000
150.998	-6.212	49.564	1.000000000
150.998	11.450	49.564	1.000000000
150.998	17.338	49.564	1.000000000
148.235	-33.165	-37.677	1.000000000
148.235	-27.201	-37.677	1.000000000
148.235	-21.237	-37.677	1.000000000
148.235	-15.273	-37.677	1.000000000
148.235	-9.309	-37.677	1.000000000
148.235	-3.345	-37.677	1.000000000
148.235	2.619	-37.677	1.000000000
148.235	8.583	-37.677	1.000000000
148.235	14.547	-37.677	1.000000000
148.235	-36.147	-32.512	1.000000000
148.235	-30.183	-32.512	1.000000000
148.235	-24.219	-32.512	1.000000000
148.235	-18.255	-32.512	1.000000000
148.235	-27.201	-27.347	1.000000000
148.235	-21.237	-27.347	1.000000000
148.235	-30.183	-22.182	1.000000000
148.235	-24.219	-22.182	1.000000000
148.235	-18.255	-22.182	1.000000000
148.235	-12.291	-22.182	1.000000000
148.235	-6.327	-22.182	1.000000000
148.235	-0.363	-22.182	1.000000000
148.235	5.601	-22.182	1.000000000
148.235	-39.129	-17.017	1.000000000
148.235	-33.165	-17.017	1.000000000
148.235	-27.201	-17.017	1.000000000
148.235	-21.237	-17.017	1.000000000
148.235	-15.273	-17.017	1.000000000
148.235	-9.309	-17.017	1.000000000
148.235	-3.345	-17.017	1.000000000
148.235	2.619	-17.017	1.000000000
148.235	8.583	-17.017	1.000000000
148.235	14.547	-17.017	1.000000000
148.235	-42.111	-11.852	1.000000000
148.235	-36.147	-11.852	1.000000000
148.235	-30.183	-11.852	1.000000000
148.235	-24.219	-11.852	1.000000000
148.235	-18.255	-11.852	1.000000000
148.235	-12.291	-11.852	1.000000000
148.235	-6.327	-11.852	1.000000000
148.235	-0.363	-11.852	1.000000000
148.235	5.601	-11.852	1.000000000
148.235	11.565	-11.852	1.000000000
148.235	17.529	-11.852	1.000000000
148.235	-45.093	-6.687	1.000000000
148.235	-39.129	-6.687	1.000000000
148.235	-33.165	-6.687	1.000000000
148.235	-27.201	-6.687	1.000000000
148.235	-21.237	-6.687	1.000000000
148.235	-15.273	-6.687	1.000000000
148.235	-9.309	-6.687	1.000000000
148.235	-3.345	-6.687	1.000000000
148.235	2.619	-6.687	1.000000000
148.235	8.583	-6.687	1.000000000
148.235	14.547	-6.687	1.000000000
148.235	20.511	-6.687	1.000000000
148.235	26.475	-6.687	1.000000000
148.235	-42.111	-1.522	1.000000000
148.235	-36.147	-1.522	1.000000000
148.235	-30.183	-1.522	1.000000000
148.235	-24.219	-1.522	1.000000000
148.235	-18.255	-1.522	1.000000000
148.235	-12.291	-1.522	1.000000000
148.235	-6.327	-1.522	1.000000000
148.235	-0.363	-1.522	1.000000000
148.235	5.601	-1.522	1.000000000
148.235	11.565	-1.522	1.000000000
148.235	17.529	-1.522	1.000000000
148.235	23.493	-1.522	1.000000000
148.235	29.457	-1.522	1.000000000
148.235	-45.093	3.643	1.000000000
148.235	-39.129	3.643	1.000000000
148.235	-33.165	3.643	1.000000000
148.235	-27.201	3.643	1.000000000
148.235	-21.237	3.643	1.000000000
148.235	-15.273	3.643	1.000000000
148.235	-9.309	3.643	1.000000000
148.235	-3.345	3.643	1.000000000
148.235	2.619	3.643	1.000000000
148.235	8.583	3.643	1.000000000
148.235	14.547	3.643	1.000000000
148.235	20.511	3.643	1.000000000
148.235	26.475	3.643	1.000000000
148.235	32.439	3.643	1.000000000
148.235	-42.111	8.808	1.000000000
148.235	-36.147	8.808	1.000000000
148.235	-30.183	8.808	1.000000000
148.235	-24.219	8.808	1.000000000
148.235	-18.255	8.808	1.000000000
148.235	-12.291	8.808	1.000000000
148.235	-6.327	8.808	1.000000000
148.235	-0.363	8.808	1.000000000
148.235	5.601	8.808	1.000000000
148.235	11.565	8.808	1.000000000
148.235	17.529	8.808	1.000000000
148.235	23.493	8.808	1.000000000
148.235	29.457	8.808	1.000000000
148.235	35.421	8.808	1.000000000
148.235	-45.093	13.973	1.000000000
148.235	-39.129	13.973	1.000000000
148.235	-33.165	13.973	1.000000000
148.235	-27.201	13.973	1.000000000
148.235	-21.237	13.973	1.000000000
148.235	-15.273	13.973	1.000000000
148.235	-9.309	13.973	1.000000000
148.235	-3.345	13.973	1.000000000
148.235	2.619	13.973	1.000000000
148.235	8.583	13.973	1.000000000
148.235	14.547	13.973	1.000000000
148.235	20.511	13.973	1.000000000
148.235	26.475	13.973	1.000000000
148.235	32.439	13.973	1.000000000
148.235	38.403	13.973	1.000000000
148.235	44.367	13.973	1.000000000
148.235	50.331	13.973	1.000000000
148.235	-42.111	19.138	1.000000000
148.235	-36.147	19.138	1.000000000
148.235	-30.183	19.138	1.000000000
148.235	-24.219	19.138	1.000000000
148.235	-18.255	19.138	1.000000000
148.235	-12.291	19.138	1.000000000
148.235	-6.327	19.138	1.000000000
148.235	-0.363	19.138	1.000000000
148.235	5.601	19.138	1.000000000
148.235	11.565	19.138	1.000000000
148.235	17.529	19.138	1.000000000
148.235	23.493	19.138	1.000000000
148.235	29.457	19.138	1.000000000
148.235	35.421	19.138	1.000000000
148.235	41.385	19.138	1.000000000
148.235	47.349	19.138	1.000000000
148.235	-15.273	24.303	1.000000000
148.235	-9.309	24.303	1.000000000
148.235	-3.345	24.303	1.000000000
148.235	2.619	24.303	1.000000000
148.235	8.583	24.303	1.000000000
148.235	14.547	24.303	1.000000000
148.235	20.511	24.303	1.000000000
148.235	26.475	24.303	1.000000000
148.235	32.439	24.303	1.000000000
148.235	38.403	24.303	1.000000000
148.235	-18.255	29.468	1.000000000
148.235	-12.291	29.468	1.000000000
148.235	-6.327	29.468	1.000000000
148.235	-0.363	29.468	1.000000000
148.235	5.601	29.468	1.000000000
148.235	11.565	29.468	1.000000000
148.235	17.529	29.468	1.000000000
148.235	23.493	29.468	1.000000000
148.235	29.457	29.468	1.000000000
148.235	35.421	29.468	1.000000000
148.235	-9.309	34.633	1.000000000
148.235	-3.345	34.633	1.000000000
148.235	2.619	34.633	1.000000000
148.235	8.583	34.633	1.000000000
148.235	14.547	34.633	1.000000000
148.235	20.511	34.633	1.000000000
148.235	-0.363	39.798	1.000000000
148.235	5.601	39.798	1.000000000
148.235	11.565	39.798	1.000000000
148.235	17.529	39.798	1.000000000
148.235	-9.309	44.963	1.000000000
148.235	-3.345	44.963	1.000000000
148.235	2.619	44.963	1.000000000
148.235	8.583	44.963	1.000000000
148.235	14.547	44.963	1.000000000
148.235	-6.327	50.128	1.000000000
148.235	-0.363	50.128	1.000000000
148.235	5.601	50.128	1.000000000
145.470	-33.664	-38.288	1.000000000
145.470	-27.616	-38.288	1.000000000
145.470	-21.569	-38.288	1.000000000
145.470	-15.522	-38.288	1.000000000
145.470	-9.475	-38.288	1.000000000
145.470	-3.428	-38.288	1.000000000
145.470	2.619	-38.288	1.000000000
145.470	8.666	-38.288	1.000000000
145.470	14.713	-38.288	1.000000000
145.470	20.760	-38.288	1.000000000
145.470	-42.734	-33.052	1.000000000
145.470	-36.687	-33.052	1.000000000
145.470	-30.640	-33.052	1.000000000
145.470	-24.593	-33.052	1.000000000
145.470	-18.546	-33.052	1.000000000
145.470	-12.499	-33.052	1.000000000
145.470	-6.452	-33.052	1.000000000
145.470	-0.405	-33.052	1.000000000
145.470	5.643	-33.052	1.000000000
145.470	-33.664	-27.815	1.000000000
145.470	-27.616	-27.815	1.000000000
145.470	-21.569	-27.815	1.000000000
145.470	-30.640	-22.578	1.000000000
145.470	-24.593	-22.578	1.000000000
145.470	-18.546	-22.578	1.000000000
145.470	-12.499	-22.578	1.000000000
145.470	-6.452	-22.578	1.000000000
145.470	-0.405	-22.578	1.000000000
145.470	5.643	-22.578	1.000000000
145.470	-39.711	-17.341	1.000000000
145.470	-33.664	-17.341	1.000000000
145.470	-27.616	-17.341	1.000000000
145.470	-21.569	-17.341	1.000000000
145.470	-15.522	-17.341	1.000000000
145.470	-9.475	-17.341	1.000000000
145.470	-3.428	-17.341	1.000000000
145.470	2.619	-17.341	1.000000000
145.470	8.666	-17.341	1.000000000
145.470	14.713	-17.341	1.000000000
145.470	20.760	-17.341	1.000000000
145.470	-42.734	-12.104	1.000000000
145.470	-36.687	-12.104	1.000000000
145.470	-30.640	-12.104	1.000000000
145.470	-24.593	-12.104	1.000000000
145.470	-18.546	-12.104	1.000000000
145.470	-12.499	-12.104	1.000000000
145.470	-6.452	-12.104	1.000000000
145.470	-0.405	-12.104	1.000000000
145.470	5.643	-12.104	1.000000000
145.470	11.690	-12.104	1.000000000
145.470	17.737	-12.104	1.000000000
145.470	23.784	-12.104	1.000000000
145.470	-45.758	-6.867	1.000000000
145.470	-39.711	-6.867	1.000000000
145.470	-33.664	-6.867	1.000000000
145.470	-27.616	-6.867	1.000000000
145.470	-21.569	-6.867	1.000000000
145.470	-15.522	-6.867	1.000000000
145.470	-9.475	-6.867	1.000000000
145.470	-3.428	-6.867	1.000000000
145.470	2.619	-6.867	1.000000000
145.470	8.666	-6.867	1.000000000
145.470	14.713	-6.867	1.000000000
145.470	20.760	-6.867	1.000000000
145.470	26.807	-6.867	1.000000000
145.470	32.855	-6.867	1.000000000
145.470	-42.734	-1.630	1.000000000
145.470	-36.687	-1.630	1.000000000
145.470	-30.640	-1.630	1.000000000
145.470	-24.593	-1.630	1.000000000
145.470	-18.546	-1.630	1.000000000
145.470	-12.499	-1.630	1.000000000
145.470	-6.452	-1.630	1.000000000
145.470	-0.405	-1.630	1.000000000
145.470	5.643	-1.630	1.000000000
145.470	11.690	-1.630	1.000000000
145.470	17.737	-1.630	1.000000000
145.470	23.784	-1.630	1.000000000
145.470	29.831	-1.630	1.000000000
145.470	35.878	-1.630	1.000000000
145.470	-45.758	3.607	1.000000000
145.470	-39.711	3.607	1.000000000
145.470	-33.664	3.607	1.000000000
145.470	-27.616	3.607	1.000000000
145.470	-21.569	3.607	1.000000000
145.470	-15.522	3.607	1.000000000
145.470	-9.475	3.607	1.000000000
145.470	-3.428	3.607	1.000000000
145.470	2.619	3.607	1.000000000
145.470	8.666	3.607	1.000000000
145.470	14.713	3.607	1.000000000
145.470	20.760	3.607	1.000000000
145.470	26.807	3.607	1.000000000
145.470	32.855	3.607	1.000000000
145.470	-42.734	8.844	1.000000000
145.470	-36.687	8.844	1.000000000
145.470	-30.640	8.844	1.000000000
145.470	-24.593	8.844	1.000000000
145.470	-18.546	8.844	1.000000000
145.470	-12.499	8.844	1.000000000
145.470	-6.452	8.844	1.000000000
145.470	-0.405	8.844	1.000000000
145.470	5.643	8.844	1.000000000
145.470	11.690	8.844	1.000000000
145.470	17.737	8.844	1.000000000
145.470	23.784	8.844	1.000000000
145.470	29.831	8.844	1.000000000
145.470	35.878	8.844	1.000000000
145.470	41.925	8.844	1.000000000
145.470	-33.664	14.081	1.000000000
145.470	-27.616	14.081	1.000000000
145.470	-21.569	14.081	1.000000000
145.470	-15.522	14.081	1.000000000
145.470	-9.475	14.081	1.000000000
145.470	-3.428	14.081	1.000000000
145.470	2.619	14.081	1.000000000
145.470	8.666	14.081	1.000000000
145.470	14.713	14.081	1.000000000
145.470	20.760	14.081	1.000000000
145.470	26.807	14.081	1.000000000
145.470	32.855	14.081	1.000000000
145.470	38.902	14.081	1.000000000
145.470	44.949	14.081	1.000000000
145.470	-24.593	19.318	1.000000000
145.470	-18.546	19.318	1.000000000
145.470	-12.499	19.318	1.000000000
145.470	-6.452	19.318	1.000000000
145.470	-0.405	19.318	1.000000000
145.470	5.643	19.318	1.000000000
145.470	11.690	19.318	1.000000000
145.470	17.737	19.318	1.000000000
145.470	23.784	19.318	1.000000000
145.470	29.831	19.318	1.000000000
145.470	35.878	19.318	1.000000000
145.470	-21.569	24.555	1.000000000
145.470	-15.522	24.555	1.000000000
145.470	-9.475	24.555	1.000000000
145.470	-3.428	24.555	1.000000000
145.470	2.619	24.555	1.000000000
145.470	8.666	24.555	1.000000000
145.470	20.760	24.555	1.000000000
145.470	26.807	24.555	1.000000000
145.470	32.855	24.555	1.000000000
145.470	-18.546	29.792	1.000000000
145.470	-12.499	29.792	1.000000000
145.470	-6.452	29.792	1.000000000
145.470	5.643	29.792	1.000000000
145.470	11.690	29.792	1.000000000
145.470	23.784	29.792	1.000000000
145.470	-9.475	35.029	1.000000000
145.470	-3.428	35.029	1.000000000
145.470	-24.593	40.266	1.000000000
145.470	11.690	40.266	1.000000000
141.287	-25.186	-39.258	1.000000000
141.287	-19.007	-39.258	1.000000000
141.287	-12.828	-39.258	1.000000000
141.287	-6.649	-39.258	1.000000000
141.287	-0.470	-39.258	1.000000000
141.287	5.708	-39.258	1.000000000
141.287	11.887	-39.258	1.000000000
141.287	18.066	-39.258	1.000000000
141.287	24.245	-39.258	1.000000000
141.287	-40.633	-33.907	1.000000000
141.287	-34.454	-33.907	1.000000000
141.287	-28.275	-33.907	1.000000000
141.287	-22.096	-33.907	1.000000000
141.287	-15.917	-33.907	1.000000000
141.287	-9.739	-33.907	1.000000000
141.287	-3.560	-33.907	1.000000000
141.287	2.619	-33.907	1.000000000
141.287	8.798	-33.907	1.000000000
141.287	14.977	-33.907	1.000000000
141.287	21.156	-33.907	1.000000000
141.287	-37.543	-28.556	1.000000000
141.287	-31.365	-28.556	1.000000000
141.287	-25.186	-28.556	1.000000000
141.287	-19.007	-28.556	1.000000000
141.287	-12.828	-28.556	1.000000000
141.287	-40.633	-23.205	1.000000000
141.287	-34.454	-23.205	1.000000000
141.287	-28.275	-23.205	1.000000000
141.287	-22.096	-23.205	1.000000000
141.287	-15.917	-23.205	1.000000000
141.287	-9.739	-23.205	1.000000000
141.287	-3.560	-23.205	1.000000000
141.287	2.619	-23.205	1.000000000
141.287	8.798	-23.205	1.000000000
141.287	21.156	-23.205	1.000000000
141.287	-37.543	-17.854	1.000000000
141.287	-31.365	-17.854	1.000000000
141.287	-25.186	-17.854	1.000000000
141.287	-19.007	-17.854	1.000000000
141.287	-12.828	-17.854	1.000000000
141.287	-6.649	-17.854	1.000000000
141.287	-0.470	-17.854	1.000000000
141.287	5.708	-17.854	1.000000000
141.287	11.887	-17.854	1.000000000
141.287	18.066	-17.854	1.000000000
141.287	24.245	-17.854	1.000000000
141.287	30.424	-17.854	1.000000000
141.287	36.603	-17.854	1.000000000
141.287	42.781	-17.854	1.000000000
141.287	-40.633	-12.503	1.000000000
141.287	-34.454	-12.503	1.000000000
141.287	-28.275	-12.503	1.000000000
141.287	-22.096	-12.503	1.000000000
141.287	-15.917	-12.503	1.000000000
141.287	-9.739	-12.503	1.000000000
141.287	-3.560	-12.503	1.000000000
141.287	2.619	-12.503	1.000000000
141.287	8.798	-12.503	1.000000000
141.287	14.977	-12.503	1.000000000
141.287	21.156	-12.503	1.000000000
141.287	27.334	-12.503	1.000000000
141.287	33.513	-12.503	1.000000000
141.287	39.692	-12.503	1.000000000
141.287	45.871	-12.503	1.000000000
141.287	-43.722	-7.152	1.000000000
141.287	-37.543	-7.152	1.000000000
141.287	-31.365	-7.152	1.000000000
141.287	-25.186	-7.152	1.000000000
141.287	-19.007	-7.152	1.000000000
141.287	-12.828	-7.152	1.000000000
141.287	-6.649	-7.152	1.000000000
141.287	-0.470	-7.152	1.000000000
141.287	5.708	-7.152	1.000000000
141.287	11.887	-7.152	1.000000000
141.287	18.066	-7.152	1.000000000
141.287	24.245	-7.152	1.000000000
141.287	30.424	-7.152	1.000000000
141.287	36.603	-7.152	1.000000000
141.287	42.781	-7.152	1.000000000
141.287	-40.633	-1.801	1.000000000
141.287	-34.454	-1.801	1.000000000
141.287	-28.275	-1.801	1.000000000
141.287	-22.096	-1.801	1.000000000
141.287	-15.917	-1.801	1.000000000
141.287	-9.739	-1.801	1.000000000
141.287	-3.560	-1.801	1.000000000
141.287	2.619	-1.801	1.000000000
141.287	8.798	-1.801	1.000000000
141.287	14.977	-1.801	1.000000000
141.287	21.156	-1.801	1.000000000
141.287	27.334	-1.801	1.000000000
141.287	33.513	-1.801	1.000000000
141.287	39.692	-1.801	1.000000000
141.287	45.871	-1.801	1.000000000
141.287	-43.722	3.550	1.000000000
141.287	-37.543	3.550	1.000000000
141.287	-31.365	3.550	1.000000000
141.287	-25.186	3.550	1.000000000
141.287	-19.007	3.550	1.000000000
141.287	-12.828	3.550	1.000000000
141.287	-6.649	3.550	1.000000000
141.287	-0.470	3.550	1.000000000
141.287	5.708	3.550	1.000000000
141.287	11.887	3.550	1.000000000
141.287	18.066	3.550	1.000000000
141.287	36.603	3.550	1.000000000
141.287	42.781	3.550	1.000000000
141.287	48.960	3.550	1.000000000
141.287	-40.633	8.901	1.000000000
141.287	-34.454	8.901	1.000000000
141.287	-28.275	8.901	1.000000000
141.287	-22.096	8.901	1.000000000
141.287	-15.917	8.901	1.000000000
141.287	-9.739	8.901	1.000000000
141.287	-3.560	8.901	1.000000000
141.287	2.619	8.901	1.000000000
141.287	8.798	8.901	1.000000000
141.287	14.977	8.901	1.000000000
141.287	21.156	8.901	1.000000000
141.287	-37.543	14.252	1.000000000
141.287	-31.365	14.252	1.000000000
141.287	-25.186	14.252	1.000000000
141.287	-19.007	14.252	1.000000000
141.287	-12.828	14.252	1.000000000
141.287	-6.649	14.252	1.000000000
141.287	-0.470	14.252	1.000000000
141.287	5.708	14.252	1.000000000
141.287	11.887	14.252	1.000000000
141.287	18.066	14.252	1.000000000
141.287	-40.633	19.603	1.000000000
141.287	-34.454	19.603	1.000000000
141.287	-28.275	19.603	1.000000000
141.287	-22.096	19.603	1.000000000
141.287	-15.917	19.603	1.000000000
141.287	-9.739	19.603	1.000000000
141.287	-3.560	19.603	1.000000000
141.287	2.619	19.603	1.000000000
141.287	8.798	19.603	1.000000000
141.287	14.977	19.603	1.000000000
141.287	-31.365	24.954	1.000000000
141.287	-25.186	24.954	1.000000000
141.287	-19.007	24.954	1.000000000
141.287	-12.828	24.954	1.000000000
141.287	-6.649	24.954	1.000000000
141.287	-0.470	24.954	1.000000000
141.287	5.708	24.954	1.000000000
141.287	11.887	24.954	1.000000000
141.287	-28.275	30.305	1.000000000
141.287	-22.096	30.305	1.000000000
141.287	-15.917	30.305	1.000000000
141.287	-9.739	30.305	1.000000000
141.287	-3.560	30.305	1.000000000
141.287	2.619	30.305	1.000000000
141.287	8.798	30.305	1.000000000
141.287	14.977	30.305	1.000000000
141.287	-25.186	35.656	1.000000000
141.287	-19.007	35.656	1.000000000
141.287	-12.828	35.656	1.000000000
141.287	-6.649	35.656	1.000000000
141.287	-0.470	35.656	1.000000000
141.287	5.708	35.656	1.000000000
141.287	11.887	35.656	1.000000000
141.287	-34.454	41.007	1.000000000
141.287	-28.275	41.007	1.000000000
141.287	-22.096	41.007	1.000000000
141.287	-3.560	41.007	1.000000000
141.287	2.619	41.007	1.000000000
141.287	8.798	41.007	1.000000000
141.287	27.334	41.007	1.000000000
141.287	33.513	41.007	1.000000000
141.287	39.692	41.007	1.000000000
141.287	-31.365	46.358	1.000000000
141.287	-25.186	46.358	1.000000000
141.287	24.245	46.358	1.000000000
141.287	30.424	46.358	1.000000000
141.287	21.156	51.709	1.000000000
138.310	-31.886	-37.239	1.000000000
138.310	-25.612	-37.239	1.000000000
138.310	-19.338	-37.239	1.000000000
138.310	-13.065	-37.239	1.000000000
138.310	-6.791	-37.239	1.000000000
138.310	-0.518	-37.239	1.000000000
138.310	5.756	-37.239	1.000000000
138.310	12.029	-37.239	1.000000000
138.310	18.303	-37.239	1.000000000
138.310	24.577	-37.239	1.000000000
138.310	-41.296	-31.806	1.000000000
138.310	-35.022	-31.806	1.000000000
138.310	-28.749	-31.806	1.000000000
138.310	-22.475	-31.806	1.000000000
138.310	-16.202	-31.806	1.000000000
138.310	-9.928	-31.806	1.000000000
138.310	-3.655	-31.806	1.000000000
138.310	2.619	-31.806	1.000000000
138.310	8.893	-31.806	1.000000000
138.310	15.166	-31.806	1.000000000
138.310	21.440	-31.806	1.000000000
138.310	-44.433	-26.373	1.000000000
138.310	-38.159	-26.373	1.000000000
138.310	-31.886	-26.373	1.000000000
138.310	-25.612	-26.373	1.000000000
138.310	-19.338	-26.373	1.000000000
138.310	-13.065	-26.373	1.000000000
138.310	-6.791	-26.373	1.000000000
138.310	-0.518	-26.373	1.000000000
138.310	5.756	-26.373	1.000000000
138.310	12.029	-26.373	1.000000000
138.310	18.303	-26.373	1.000000000
138.310	24.577	-26.373	1.000000000
138.310	30.850	-26.373	1.000000000
138.310	37.124	-26.373	1.000000000
138.310	43.397	-26.373	1.000000000
138.310	-41.296	-20.940	1.000000000
138.310	-35.022	-20.940	1.000000000
138.310	-28.749	-20.940	1.000000000
138.310	-22.475	-20.940	1.000000000
138.310	-16.202	-20.940	1.000000000
138.310	-9.928	-20.940	1.000000000
138.310	-3.655	-20.940	1.000000000
138.310	2.619	-20.940	1.000000000
138.310	8.893	-20.940	1.000000000
138.310	15.166	-20.940	1.000000000
138.310	21.440	-20.940	1.000000000
138.310	27.713	-20.940	1.000000000
138.310	33.987	-20.940	1.000000000
138.310	40.260	-20.940	1.000000000
138.310	-38.159	-15.507	1.000000000
138.310	-31.886	-15.507	1.000000000
138.310	-25.612	-15.507	1.000000000
138.310	-19.338	-15.507	1.000000000
138.310	-13.065	-15.507	1.000000000
138.310	-6.791	-15.507	1.000000000
138.310	-0.518	-15.507	1.000000000
138.310	5.756	-15.507	1.000000000
138.310	12.029	-15.507	1.000000000
138.310	18.303	-15.507	1.000000000
138.310	24.577	-15.507	1.000000000
138.310	30.850	-15.507	1.000000000
138.310	37.124	-15.507	1.000000000
138.310	43.397	-15.507	1.000000000
138.310	-41.296	-10.074	1.000000000
138.310	-35.022	-10.074	1.000000000
138.310	-28.749	-10.074	1.000000000
138.310	-22.475	-10.074	1.000000000
138.310	-16.202	-10.074	1.000000000
138.310	-9.928	-10.074	1.000000000
138.310	-3.655	-10.074	1.000000000
138.310	2.619	-10.074	1.000000000
138.310	8.893	-10.074	1.000000000
138.310	15.166	-10.074	1.000000000
138.310	27.713	-10.074	1.000000000
138.310	33.987	-10.074	1.000000000
138.310	40.260	-10.074	1.000000000
138.310	46.534	-10.074	1.000000000
138.310	-44.433	-4.641	1.000000000
138.310	-38.159	-4.641	1.000000000
138.310	-31.886	-4.641	1.000000000
138.310	-25.612	-4.641	1.000000000
138.310	-19.338	-4.641	1.000000000
138.310	-13.065	-4.641	1.000000000
138.310	-6.791	-4.641	1.000000000
138.310	-0.518	-4.641	1.000000000
138.310	5.756	-4.641	1.000000000
138.310	12.029	-4.641	1.000000000
138.310	18.303	-4.641	1.000000000
138.310	37.124	-4.641	1.000000000
138.310	43.397	-4.641	1.000000000
138.310	-41.296	0.792	1.000000000
138.310	-35.022	0.792	1.000000000
138.310	-28.749	0.792	1.000000000
138.310	-22.475	0.792	1.000000000
138.310	-16.202	0.792	1.000000000
138.310	-9.928	0.792	1.000000000
138.310	-3.655	0.792	1.000000000
138.310	2.619	0.792	1.000000000
138.310	8.893	0.792	1.000000000
138.310	15.166	0.792	1.000000000
138.310	21.440	0.792	1.000000000
138.310	27.713	0.792	1.000000000
138.310	-44.433	6.226	1.000000000
138.310	-38.159	6.226	1.000000000
138.310	-31.886	6.226	1.000000000
138.310	-25.612	6.226	1.000000000
138.310	-19.338	6.226	1.000000000
138.310	-13.065	6.226	1.000000000
138.310	-6.791	6.226	1.000000000
138.310	-0.518	6.226	1.000000000
138.310	5.756	6.226	1.000000000
138.310	12.029	6.226	1.000000000
138.310	18.303	6.226	1.000000000
138.310	24.577	6.226	1.000000000
138.310	-41.296	11.659	1.000000000
138.310	-35.022	11.659	1.000000000
138.310	-28.749	11.659	1.000000000
138.310	-22.475	11.659	1.000000000
138.310	-16.202	11.659	1.000000000
138.310	-9.928	11.659	1.000000000
138.310	-3.655	11.659	1.000000000
138.310	2.619	11.659	1.000000000
138.310	8.893	11.659	1.000000000
138.310	15.166	11.659	1.000000000
138.310	21.440	11.659	1.000000000
138.310	27.713	11.659	1.000000000
138.310	-44.433	17.092	1.000000000
138.310	-38.159	17.092	1.000000000
138.310	-31.886	17.092	1.000000000
138.310	-25.612	17.092	1.000000000
138.310	-19.338	17.092	1.000000000
138.310	-13.065	17.092	1.000000000
138.310	-6.791	17.092	1.000000000
138.310	-0.518	17.092	1.000000000
138.310	5.756	17.092	1.000000000
138.310	12.029	17.092	1.000000000
138.310	18.303	17.092	1.000000000
138.310	24.577	17.092	1.000000000
138.310	-35.022	22.525	1.000000000
138.310	-28.749	22.525	1.000000000
138.310	-22.475	22.525	1.000000000
138.310	-16.202	22.525	1.000000000
138.310	-9.928	22.525	1.000000000
138.310	-3.655	22.525	1.000000000
138.310	2.619	22.525	1.000000000
138.310	8.893	22.525	1.000000000
138.310	15.166	22.525	1.000000000
138.310	-44.433	27.958	1.000000000
138.310	-38.159	27.958	1.000000000
138.310	-31.886	27.958	1.000000000
138.310	-25.612	27.958	1.000000000
138.310	-19.338	27.958	1.000000000
138.310	-13.065	27.958	1.000000000
138.310	-6.791	27.958	1.000000000
138.310	-0.518	27.958	1.000000000
138.310	5.756	27.958	1.000000000
138.310	12.029	27.958	1.000000000
138.310	18.303	27.958	1.000000000
138.310	43.397	27.958	1.000000000
138.310	-41.296	33.391	1.000000000
138.310	-35.022	33.391	1.000000000
138.310	-28.749	33.391	1.000000000
138.310	-22.475	33.391	1.000000000
138.310	-16.202	33.391	1.000000000
138.310	-9.928	33.391	1.000000000
138.310	-3.655	33.391	1.000000000
138.310	2.619	33.391	1.000000000
138.310	8.893	33.391	1.000000000
138.310	15.166	33.391	1.000000000
138.310	27.713	33.391	1.000000000
138.310	33.987	33.391	1.000000000
138.310	40.260	33.391	1.000000000
138.310	-38.159	38.824	1.000000000
138.310	-31.886	38.824	1.000000000
138.310	-25.612	38.824	1.000000000
138.310	-19.338	38.824	1.000000000
138.310	-13.065	38.824	1.000000000
138.310	-6.791	38.824	1.000000000
138.310	-0.518	38.824	1.000000000
138.310	5.756	38.824	1.000000000
138.310	12.029	38.824	1.000000000
138.310	24.577	38.824	1.000000000
138.310	30.850	38.824	1.000000000
138.310	-35.022	44.257	1.000000000
138.310	-28.749	44.257	1.000000000
138.310	-22.475	44.257	1.000000000
138.310	-16.202	44.257	1.000000000
138.310	-3.655	44.257	1.000000000
138.310	2.619	44.257	1.000000000
138.310	8.893	44.257	1.000000000
138.310	21.440	44.257	1.000000000
138.310	27.713	44.257	1.000000000
138.310	-25.612	49.690	1.000000000
138.310	-19.338	49.690	1.000000000
138.310	-13.065	49.690	1.000000000
138.310	18.303	49.690	1.000000000
135.334	-32.428	-37.923	1.000000000
135.334	-26.056	-37.923	1.000000000
135.334	-19.684	-37.923	1.000000000
135.334	-13.312	-37.923	1.000000000
135.334	-6.939	-37.923	1.000000000
135.334	-0.567	-37.923	1.000000000
135.334	5.805	-37.923	1.000000000
135.334	12.177	-37.923	1.000000000
135.334	-41.987	-32.404	1.000000000
135.334	-35.614	-32.404	1.000000000
135.334	-29.242	-32.404	1.000000000
135.334	-22.870	-32.404	1.000000000
135.334	-16.498	-32.404	1.000000000
135.334	-10.125	-32.404	1.000000000
135.334	-3.753	-32.404	1.000000000
135.334	2.619	-32.404	1.000000000
135.334	8.991	-32.404	1.000000000
135.334	15.363	-32.404	1.000000000
135.334	21.736	-32.404	1.000000000
135.334	28.108	-32.404	1.000000000
135.334	34.480	-32.404	1.000000000
135.334	-45.173	-26.886	1.000000000
135.334	-38.800	-26.886	1.000000000
135.334	-32.428	-26.886	1.000000000
135.334	-26.056	-26.886	1.000000000
135.334	-19.684	-26.886	1.000000000
135.334	-13.312	-26.886	1.000000000
135.334	-6.939	-26.886	1.000000000
135.334	-0.567	-26.886	1.000000000
135.334	5.805	-26.886	1.000000000
135.334	12.177	-26.886	1.000000000
135.334	18.550	-26.886	1.000000000
135.334	24.922	-26.886	1.000000000
135.334	31.294	-26.886	1.000000000
135.334	-41.987	-21.367	1.000000000
135.334	-35.614	-21.367	1.000000000
135.334	-29.242	-21.367	1.000000000
135.334	-22.870	-21.367	1.000000000
135.334	-16.498	-21.367	1.000000000
135.334	-10.125	-21.367	1.000000000
135.334	-3.753	-21.367	1.000000000
135.334	2.619	-21.367	1.000000000
135.334	8.991	-21.367	1.000000000
135.334	15.363	-21.367	1.000000000
135.334	21.736	-21.367	1.000000000
135.334	28.108	-21.367	1.000000000
135.334	34.480	-21.367	1.000000000
135.334	-32.428	-15.849	1.000000000
135.334	-26.056	-15.849	1.000000000
135.334	-19.684	-15.849	1.000000000
135.334	-13.312	-15.849	1.000000000
135.334	-6.939	-15.849	1.000000000
135.334	-0.567	-15.849	1.000000000
135.334	5.805	-15.849	1.000000000
135.334	12.177	-15.849	1.000000000
135.334	24.922	-15.849	1.000000000
135.334	31.294	-15.849	1.000000000
135.334	37.666	-15.849	1.000000000
135.334	-41.987	-10.330	1.000000000
135.334	-35.614	-10.330	1.000000000
135.334	-29.242	-10.330	1.000000000
135.334	-22.870	-10.330	1.000000000
135.334	-16.498	-10.330	1.000000000
135.334	-10.125	-10.330	1.000000000
135.334	-3.753	-10.330	1.000000000
135.334	2.619	-10.330	1.000000000
135.334	8.991	-10.330	1.000000000
135.334	15.363	-10.330	1.000000000
135.334	21.736	-10.330	1.000000000
135.334	-45.173	-4.811	1.000000000
135.334	-38.800	-4.811	1.000000000
135.334	-32.428	-4.811	1.000000000
135.334	-26.056	-4.811	1.000000000
135.334	-19.684	-4.811	1.000000000
135.334	-13.312	-4.811	1.000000000
135.334	-6.939	-4.811	1.000000000
135.334	-0.567	-4.811	1.000000000
135.334	5.805	-4.811	1.000000000
135.334	12.177	-4.811	1.000000000
135.334	18.550	-4.811	1.000000000
135.334	24.922	-4.811	1.000000000
135.334	-41.987	0.707	1.000000000
135.334	-35.614	0.707	1.000000000
135.334	-29.242	0.707	1.000000000
135.334	-22.870	0.707	1.000000000
135.334	-16.498	0.707	1.000000000
135.334	-10.125	0.707	1.000000000
135.334	-3.753	0.707	1.000000000
135.334	2.619	0.707	1.000000000
135.334	8.991	0.707	1.000000000
135.334	15.363	0.707	1.000000000
135.334	21.736	0.707	1.000000000
135.334	28.108	0.707	1.000000000
135.334	-45.173	6.226	1.000000000
135.334	-38.800	6.226	1.000000000
135.334	-32.428	6.226	1.000000000
135.334	-26.056	6.226	1.000000000
135.334	-19.684	6.226	1.000000000
135.334	-13.312	6.226	1.000000000
135.334	-6.939	6.226	1.000000000
135.334	-0.567	6.226	1.000000000
135.334	5.805	6.226	1.000000000
135.334	12.177	6.226	1.000000000
135.334	18.550	6.226	1.000000000
135.334	24.922	6.226	1.000000000
135.334	31.294	6.226	1.000000000
135.334	-41.987	11.744	1.000000000
135.334	-35.614	11.744	1.000000000
135.334	-29.242	11.744	1.000000000
135.334	-22.870	11.744	1.000000000
135.334	-16.498	11.744	1.000000000
135.334	-10.125	11.744	1.000000000
135.334	-3.753	11.744	1.000000000
135.334	2.619	11.744	1.000000000
135.334	8.991	11.744	1.000000000
135.334	15.363	11.744	1.000000000
135.334	21.736	11.744	1.000000000
135.334	28.108	11.744	1.000000000
135.334	34.480	11.744	1.000000000
135.334	-45.173	17.263	1.000000000
135.334	-38.800	17.263	1.000000000
135.334	-32.428	17.263	1.000000000
135.334	-26.056	17.263	1.000000000
135.334	-19.684	17.263	1.000000000
135.334	-13.312	17.263	1.000000000
135.334	-6.939	17.263	1.000000000
135.334	-0.567	17.263	1.000000000
135.334	5.805	17.263	1.000000000
135.334	12.177	17.263	1.000000000
135.334	18.550	17.263	1.000000000
135.334	24.922	17.263	1.000000000
135.334	31.294	17.263	1.000000000
135.334	37.666	17.263	1.000000000
135.334	44.039	17.263	1.000000000
135.334	50.411	17.263	1.000000000
135.334	-41.987	22.781	1.000000000
135.334	-35.614	22.781	1.000000000
135.334	-29.242	22.781	1.000000000
135.334	-22.870	22.781	1.000000000
135.334	-16.498	22.781	1.000000000
135.334	-10.125	22.781	1.000000000
135.334	-3.753	22.781	1.000000000
135.334	2.619	22.781	1.000000000
135.334	8.991	22.781	1.000000000
135.334	15.363	22.781	1.000000000
135.334	21.736	22.781	1.000000000
135.334	28.108	22.781	1.000000000
135.334	34.480	22.781	1.000000000
135.334	40.852	22.781	1.000000000
135.334	47.225	22.781	1.000000000
135.334	-32.428	28.300	1.000000000
135.334	-26.056	28.300	1.000000000
135.334	-19.684	28.300	1.000000000
135.334	-13.312	28.300	1.000000000
135.334	-6.939	28.300	1.000000000
135.334	-0.567	28.300	1.000000000
135.334	5.805	28.300	1.000000000
135.334	12.177	28.300	1.000000000
135.334	18.550	28.300	1.000000000
135.334	24.922	28.300	1.000000000
135.334	37.666	28.300	1.000000000
135.334	44.039	28.300	1.000000000
135.334	-29.242	33.818	1.000000000
135.334	-22.870	33.818	1.000000000
135.334	-16.498	33.818	1.000000000
135.334	-10.125	33.818	1.000000000
135.334	-3.753	33.818	1.000000000
135.334	2.619	33.818	1.000000000
135.334	8.991	33.818	1.000000000
135.334	15.363	33.818	1.000000000
135.334	21.736	33.818	1.000000000
135.334	28.108	33.818	1.000000000
135.334	34.480	33.818	1.000000000
135.334	-19.684	39.337	1.000000000
135.334	-13.312	39.337	1.000000000
135.334	-6.939	39.337	1.000000000
135.334	-0.567	39.337	1.000000000
135.334	5.805	39.337	1.000000000
135.334	12.177	39.337	1.000000000
135.334	18.550	39.337	1.000000000
135.334	24.922	39.337	1.000000000
135.334	-16.498	44.855	1.000000000
135.334	-10.125	44.855	1.000000000
135.334	-3.753	44.855	1.000000000
135.334	2.619	44.855	1.000000000
135.334	8.991	44.855	1.000000000
135.334	15.363	44.855	1.000000000
135.334	21.736	44.855	1.000000000
135.334	-13.312	50.374	1.000000000
135.334	-6.939	50.374	1.000000000
135.334	-0.567	50.374	1.000000000
132.461	-32.963	-38.596	1.000000000
132.461	-26.493	-38.596	1.000000000
132.461	-20.024	-38.596	1.000000000
132.461	-13.554	-38.596	1.000000000
132.461	-7.085	-38.596	1.000000000
132.461	-0.616	-38.596	1.000000000
132.461	5.854	-38.596	1.000000000
132.461	12.323	-38.596	1.000000000
132.461	18.793	-38.596	1.000000000
132.461	-36.197	-32.993	1.000000000
132.461	-29.728	-32.993	1.000000000
132.461	-23.258	-32.993	1.000000000
132.461	-16.789	-32.993	1.000000000
132.461	-10.320	-32.993	1.000000000
132.461	-3.850	-32.993	1.000000000
132.461	2.619	-32.993	1.000000000
132.461	9.088	-32.993	1.000000000
132.461	15.558	-32.993	1.000000000
132.461	-32.963	-27.390	1.000000000
132.461	-26.493	-27.390	1.000000000
132.461	-20.024	-27.390	1.000000000
132.461	5.854	-27.390	1.000000000
132.461	12.323	-27.390	1.000000000
132.461	18.793	-27.390	1.000000000
132.461	-29.728	-21.788	1.000000000
132.461	-23.258	-21.788	1.000000000
132.461	-16.789	-21.788	1.000000000
132.461	-10.320	-21.788	1.000000000
132.461	-3.850	-21.788	1.000000000
132.461	2.619	-21.788	1.000000000
132.461	9.088	-21.788	1.000000000
132.461	-39.432	-16.185	1.000000000
132.461	-32.963	-16.185	1.000000000
132.461	-26.493	-16.185	1.000000000
132.461	-20.024	-16.185	1.000000000
132.461	-13.554	-16.185	1.000000000
132.461	-7.085	-16.185	1.000000000
132.461	-0.616	-16.185	1.000000000
132.461	5.854	-16.185	1.000000000
132.461	12.323	-16.185	1.000000000
132.461	-42.667	-10.582	1.000000000
132.461	-36.197	-10.582	1.000000000
132.461	-29.728	-10.582	1.000000000
132.461	-23.258	-10.582	1.000000000
132.461	-16.789	-10.582	1.000000000
132.461	-10.320	-10.582	1.000000000
132.461	-3.850	-10.582	1.000000000
132.461	2.619	-10.582	1.000000000
132.461	9.088	-10.582	1.000000000
132.461	15.558	-10.582	1.000000000
132.461	22.027	-10.582	1.000000000
132.461	-45.901	-4.980	1.000000000
132.461	-39.432	-4.980	1.000000000
132.461	-32.963	-4.980	1.000000000
132.461	-26.493	-4.980	1.000000000
132.461	-20.024	-4.980	1.000000000
132.461	-13.554	-4.980	1.000000000
132.461	-7.085	-4.980	1.000000000
132.461	-0.616	-4.980	1.000000000
132.461	5.854	-4.980	1.000000000
132.461	12.323	-4.980	1.000000000
132.461	18.793	-4.980	1.000000000
132.461	25.262	-4.980	1.000000000
132.461	31.731	-4.980	1.000000000
132.461	-42.667	0.623	1.000000000
132.461	-36.197	0.623	1.000000000
132.461	-29.728	0.623	1.000000000
132.461	-23.258	0.623	1.000000000
132.461	-16.789	0.623	1.000000000
132.461	-10.320	0.623	1.000000000
132.461	-3.850	0.623	1.000000000
132.461	2.619	0.623	1.000000000
132.461	9.088	0.623	1.000000000
132.461	15.558	0.623	1.000000000
132.461	22.027	0.623	1.000000000
132.461	28.497	0.623	1.000000000
132.461	34.966	0.623	1.000000000
132.461	-45.901	6.226	1.000000000
132.461	-39.432	6.226	1.000000000
132.461	-32.963	6.226	1.000000000
132.461	-26.493	6.226	1.000000000
132.461	-20.024	6.226	1.000000000
132.461	-13.554	6.226	1.000000000
132.461	-7.085	6.226	1.000000000
132.461	-0.616	6.226	1.000000000
132.461	5.854	6.226	1.000000000
132.461	12.323	6.226	1.000000000
132.461	18.793	6.226	1.000000000
132.461	25.262	6.226	1.000000000
132.461	31.731	6.226	1.000000000
132.461	-42.667	11.828	1.000000000
132.461	-36.197	11.828	1.000000000
132.461	-29.728	11.828	1.000000000
132.461	-23.258	11.828	1.000000000
132.461	-16.789	11.828	1.000000000
132.461	-10.320	11.828	1.000000000
132.461	-3.850	11.828	1.000000000
132.461	2.619	11.828	1.000000000
132.461	9.088	11.828	1.000000000
132.461	15.558	11.828	1.000000000
132.461	22.027	11.828	1.000000000
132.461	28.497	11.828	1.000000000
132.461	34.966	11.828	1.000000000
132.461	41.435	11.828	1.000000000
132.461	-26.493	17.431	1.000000000
132.461	-20.024	17.431	1.000000000
132.461	-13.554	17.431	1.000000000
132.461	-7.085	17.431	1.000000000
132.461	-0.616	17.431	1.000000000
132.461	5.854	17.431	1.000000000
132.461	12.323	17.431	1.000000000
132.461	18.793	17.431	1.000000000
132.461	25.262	17.431	1.000000000
132.461	31.731	17.431	1.000000000
132.461	38.201	17.431	1.000000000
132.461	44.670	17.431	1.000000000
132.461	-23.258	23.033	1.000000000
132.461	-16.789	23.033	1.000000000
132.461	-3.850	23.033	1.000000000
132.461	2.619	23.033	1.000000000
132.461	9.088	23.033	1.000000000
132.461	15.558	23.033	1.000000000
132.461	22.027	23.033	1.000000000
132.461	28.497	23.033	1.000000000
132.461	34.966	23.033	1.000000000
132.461	41.435	23.033	1.000000000
132.461	-13.554	28.636	1.000000000
132.461	5.854	28.636	1.000000000
132.461	18.793	28.636	1.000000000
132.461	25.262	28.636	1.000000000
132.461	31.731	28.636	1.000000000
132.461	-10.320	34.239	1.000000000
132.461	9.088	34.239	1.000000000
132.461	15.558	34.239	1.000000000
132.461	22.027	34.239	1.000000000
132.461	5.854	39.841	1.000000000
132.461	12.323	39.841	1.000000000
132.461	18.793	39.841	1.000000000
132.461	9.088	45.444	1.000000000
132.461	15.558	45.444	1.000000000
129.451	-30.258	-39.331	1.000000000
129.451	-23.683	-39.331	1.000000000
129.451	-17.107	-39.331	1.000000000
129.451	-10.532	-39.331	1.000000000
129.451	-3.956	-39.331	1.000000000
129.451	2.619	-39.331	1.000000000
129.451	9.195	-39.331	1.000000000
129.451	15.770	-39.331	1.000000000
129.451	22.345	-39.331	1.000000000
129.451	-40.121	-33.636	1.000000000
129.451	-33.546	-33.636	1.000000000
129.451	-26.971	-33.636	1.000000000
129.451	-20.395	-33.636	1.000000000
129.451	-13.820	-33.636	1.000000000
129.451	-7.244	-33.636	1.000000000
129.451	-0.669	-33.636	1.000000000
129.451	5.907	-33.636	1.000000000
129.451	12.482	-33.636	1.000000000
129.451	-36.834	-27.942	1.000000000
129.451	-30.258	-27.942	1.000000000
129.451	-23.683	-27.942	1.000000000
129.451	-17.107	-27.942	1.000000000
129.451	-40.121	-22.247	1.000000000
129.451	-33.546	-22.247	1.000000000
129.451	-26.971	-22.247	1.000000000
129.451	-20.395	-22.247	1.000000000
129.451	-13.820	-22.247	1.000000000
129.451	-7.244	-22.247	1.000000000
129.451	-0.669	-22.247	1.000000000
129.451	5.907	-22.247	1.000000000
129.451	-43.409	-16.553	1.000000000
129.451	-36.834	-16.553	1.000000000
129.451	-30.258	-16.553	1.000000000
129.451	-23.683	-16.553	1.000000000
129.451	-17.107	-16.553	1.000000000
129.451	-10.532	-16.553	1.000000000
129.451	-3.956	-16.553	1.000000000
129.451	2.619	-16.553	1.000000000
129.451	9.195	-16.553	1.000000000
129.451	15.770	-16.553	1.000000000
129.451	22.345	-16.553	1.000000000
129.451	-40.121	-10.858	1.000000000
129.451	-33.546	-10.858	1.000000000
129.451	-26.971	-10.858	1.000000000
129.451	-20.395	-10.858	1.000000000
129.451	-13.820	-10.858	1.000000000
129.451	-7.244	-10.858	1.000000000
129.451	-0.669	-10.858	1.000000000
129.451	5.907	-10.858	1.000000000
129.451	12.482	-10.858	1.000000000
129.451	19.058	-10.858	1.000000000
129.451	25.633	-10.858	1.000000000
129.451	32.209	-10.858	1.000000000
129.451	-43.409	-5.164	1.000000000
129.451	-36.834	-5.164	1.000000000
129.451	-30.258	-5.164	1.000000000
129.451	-23.683	-5.164	1.000000000
129.451	-17.107	-5.164	1.000000000
129.451	-10.532	-5.164	1.000000000
129.451	-3.956	-5.164	1.000000000
129.451	2.619	-5.164	1.000000000
129.451	9.195	-5.164	1.000000000
129.451	15.770	-5.164	1.000000000
129.451	22.345	-5.164	1.000000000
129.451	28.921	-5.164	1.000000000
129.451	35.496	-5.164	1.000000000
129.451	-40.121	0.531	1.000000000
129.451	-33.546	0.531	1.000000000
129.451	-26.971	0.531	1.000000000
129.451	-20.395	0.531	1.000000000
129.451	-13.820	0.531	1.000000000
129.451	-7.244	0.531	1.000000000
129.451	-0.669	0.531	1.000000000
129.451	5.907	0.531	1.000000000
129.451	12.482	0.531	1.000000000
129.451	19.058	0.531	1.000000000
129.451	25.633	0.531	1.000000000
129.451	32.209	0.531	1.000000000
129.451	38.784	0.531	1.000000000
129.451	-36.834	6.226	1.000000000
129.451	-30.258	6.226	1.000000000
129.451	-23.683	6.226	1.000000000
129.451	-17.107	6.226	1.000000000
129.451	-10.532	6.226	1.000000000
129.451	-3.956	6.226	1.000000000
129.451	2.619	6.226	1.000000000
129.451	9.195	6.226	1.000000000
129.451	15.770	6.226	1.000000000
129.451	22.345	6.226	1.000000000
129.451	28.921	6.226	1.000000000
129.451	35.496	6.226	1.000000000
129.451	42.072	6.226	1.000000000
129.451	-33.546	11.920	1.000000000
129.451	-26.971	11.920	1.000000000
129.451	-20.395	11.920	1.000000000
129.451	-13.820	11.920	1.000000000
129.451	-7.244	11.920	1.000000000
129.451	-0.669	11.920	1.000000000
129.451	5.907	11.920	1.000000000
129.451	12.482	11.920	1.000000000
129.451	19.058	11.920	1.000000000
129.451	25.633	11.920	1.000000000
129.451	38.784	11.920	1.000000000
129.451	45.360	11.920	1.000000000
129.451	-23.683	17.615	1.000000000
129.451	-17.107	17.615	1.000000000
129.451	-10.532	17.615	1.000000000
129.451	-3.956	17.615	1.000000000
129.451	2.619	17.615	1.000000000
129.451	9.195	17.615	1.000000000
129.451	15.770	17.615	1.000000000
129.451	22.345	17.615	1.000000000
129.451	28.921	17.615	1.000000000
129.451	-26.971	23.309	1.000000000
129.451	-20.395	23.309	1.000000000
129.451	-13.820	23.309	1.000000000
129.451	-7.244	23.309	1.000000000
129.451	-0.669	23.309	1.000000000
129.451	5.907	23.309	1.000000000
129.451	12.482	23.309	1.000000000
129.451	19.058	23.309	1.000000000
129.451	25.633	23.309	1.000000000
129.451	32.209	23.309	1.000000000
129.451	-17.107	29.004	1.000000000
129.451	-10.532	29.004	1.000000000
129.451	2.619	29.004	1.000000000
129.451	9.195	29.004	1.000000000
129.451	-13.820	34.698	1.000000000
129.451	-7.244	34.698	1.000000000
129.451	-23.683	40.393	1.000000000
129.451	25.633	46.087	1.000000000
129.451	38.784	46.087	1.000000000
126.267	-37.531	-37.239	1.000000000
126.267	-30.840	-37.239	1.000000000
126.267	-24.148	-37.239	1.000000000
126.267	-17.456	-37.239	1.000000000
126.267	-10.764	-37.239	1.000000000
126.267	-4.073	-37.239	1.000000000
126.267	2.619	-37.239	1.000000000
126.267	9.311	-37.239	1.000000000
126.267	16.003	-37.239	1.000000000
126.267	22.694	-37.239	1.000000000
126.267	-40.877	-31.443	1.000000000
126.267	-34.185	-31.443	1.000000000
126.267	-27.494	-31.443	1.000000000
126.267	-20.802	-31.443	1.000000000
126.267	-14.110	-31.443	1.000000000
126.267	-7.419	-31.443	1.000000000
126.267	-0.727	-31.443	1.000000000
126.267	-44.223	-25.648	1.000000000
126.267	-37.531	-25.648	1.000000000
126.267	-30.840	-25.648	1.000000000
126.267	-24.148	-25.648	1.000000000
126.267	-17.456	-25.648	1.000000000
126.267	-10.764	-25.648	1.000000000
126.267	-4.073	-25.648	1.000000000
126.267	-40.877	-19.853	1.000000000
126.267	-34.185	-19.853	1.000000000
126.267	-27.494	-19.853	1.000000000
126.267	-20.802	-19.853	1.000000000
126.267	-14.110	-19.853	1.000000000
126.267	-7.419	-19.853	1.000000000
126.267	-0.727	-19.853	1.000000000
126.267	5.965	-19.853	1.000000000
126.267	12.657	-19.853	1.000000000
126.267	19.348	-19.853	1.000000000
126.267	26.040	-19.853	1.000000000
126.267	39.424	-19.853	1.000000000
126.267	46.115	-19.853	1.000000000
126.267	-44.223	-14.058	1.000000000
126.267	-37.531	-14.058	1.000000000
126.267	-30.840	-14.058	1.000000000
126.267	-24.148	-14.058	1.000000000
126.267	-17.456	-14.058	1.000000000
126.267	-10.764	-14.058	1.000000000
126.267	-4.073	-14.058	1.000000000
126.267	2.619	-14.058	1.000000000
126.267	9.311	-14.058	1.000000000
126.267	16.003	-14.058	1.000000000
126.267	22.694	-14.058	1.000000000
126.267	29.386	-14.058	1.000000000
126.267	36.078	-14.058	1.000000000
126.267	42.769	-14.058	1.000000000
126.267	49.461	-14.058	1.000000000
126.267	-40.877	-8.262	1.000000000
126.267	-34.185	-8.262	1.000000000
126.267	-27.494	-8.262	1.000000000
126.267	-20.802	-8.262	1.000000000
126.267	-14.110	-8.262	1.000000000
126.267	-7.419	-8.262	1.000000000
126.267	-0.727	-8.262	1.000000000
126.267	5.965	-8.262	1.000000000
126.267	12.657	-8.262	1.000000000
126.267	19.348	-8.262	1.000000000
126.267	26.040	-8.262	1.000000000
126.267	32.732	-8.262	1.000000000
126.267	39.424	-8.262	1.000000000
126.267	46.115	-8.262	1.000000000
126.267	-44.223	-2.467	1.000000000
126.267	-37.531	-2.467	1.000000000
126.267	-30.840	-2.467	1.000000000
126.267	-24.148	-2.467	1.000000000
126.267	-17.456	-2.467	1.000000000
126.267	-10.764	-2.467	1.000000000
126.267	-4.073	-2.467	1.000000000
126.267	2.619	-2.467	1.000000000
126.267	9.311	-2.467	1.000000000
126.267	16.003	-2.467	1.000000000
126.267	22.694	-2.467	1.000000000
126.267	29.386	-2.467	1.000000000
126.267	36.078	-2.467	1.000000000
126.267	42.769	-2.467	1.000000000
126.267	-40.877	3.328	1.000000000
126.267	-34.185	3.328	1.000000000
126.267	-27.494	3.328	1.000000000
126.267	-20.802	3.328	1.000000000
126.267	-14.110	3.328	1.000000000
126.267	-7.419	3.328	1.000000000
126.267	-0.727	3.328	1.000000000
126.267	5.965	3.328	1.000000000
126.267	12.657	3.328	1.000000000
126.267	19.348	3.328	1.000000000
126.267	39.424	3.328	1.000000000
126.267	46.115	3.328	1.000000000
126.267	-37.531	9.123	1.000000000
126.267	-30.840	9.123	1.000000000
126.267	-24.148	9.123	1.000000000
126.267	-17.456	9.123	1.000000000
126.267	-10.764	9.123	1.000000000
126.267	-4.073	9.123	1.000000000
126.267	2.619	9.123	1.000000000
126.267	9.311	9.123	1.000000000
126.267	16.003	9.123	1.000000000
126.267	22.694	9.123	1.000000000
126.267	-40.877	14.918	1.000000000
126.267	-34.185	14.918	1.000000000
126.267	-27.494	14.918	1.000000000
126.267	-20.802	14.918	1.000000000
126.267	-14.110	14.918	1.000000000
126.267	-7.419	14.918	1.000000000
126.267	-0.727	14.918	1.000000000
126.267	5.965	14.918	1.000000000
126.267	12.657	14.918	1.000000000
126.267	19.348	14.918	1.000000000
126.267	-30.840	20.714	1.000000000
126.267	-24.148	20.714	1.000000000
126.267	-17.456	20.714	1.000000000
126.267	-10.764	20.714	1.000000000
126.267	-4.073	20.714	1.000000000
126.267	2.619	20.714	1.000000000
126.267	9.311	20.714	1.000000000
126.267	16.003	20.714	1.000000000
126.267	-34.185	26.509	1.000000000
126.267	-27.494	26.509	1.000000000
126.267	-20.802	26.509	1.000000000
126.267	-14.110	26.509	1.000000000
126.267	-7.419	26.509	1.000000000
126.267	-0.727	26.509	1.000000000
126.267	5.965	26.509	1.000000000
126.267	12.657	26.509	1.000000000
126.267	-24.148	32.304	1.000000000
126.267	-17.456	32.304	1.000000000
126.267	-10.764	32.304	1.000000000
126.267	-4.073	32.304	1.000000000
126.267	2.619	32.304	1.000000000
126.267	9.311	32.304	1.000000000
126.267	-27.494	38.099	1.000000000
126.267	-20.802	38.099	1.000000000
126.267	-7.419	38.099	1.000000000
126.267	-0.727	38.099	1.000000000
126.267	5.965	38.099	1.000000000
126.267	12.657	38.099	1.000000000
126.267	26.040	38.099	1.000000000
126.267	32.732	38.099	1.000000000
126.267	39.424	38.099	1.000000000
126.267	-30.840	43.894	1.000000000
126.267	-24.148	43.894	1.000000000
126.267	22.694	43.894	1.000000000
126.267	29.386	43.894	1.000000000
126.267	36.078	43.894	1.000000000
126.267	-27.494	49.690	1.000000000
126.267	26.040	49.690	1.000000000
123.162	-31.436	-38.013	1.000000000
123.162	-17.814	-38.013	1.000000000
123.162	-11.003	-38.013	1.000000000
123.162	-4.192	-38.013	1.000000000
123.162	2.619	-38.013	1.000000000
123.162	9.430	-38.013	1.000000000
123.162	16.241	-38.013	1.000000000
123.162	23.052	-38.013	1.000000000
123.162	-41.652	-32.115	1.000000000
123.162	-34.841	-32.115	1.000000000
123.162	-28.030	-32.115	1.000000000
123.162	-21.219	-32.115	1.000000000
123.162	-14.408	-32.115	1.000000000
123.162	-7.597	-32.115	1.000000000
123.162	-0.786	-32.115	1.000000000
123.162	6.025	-32.115	1.000000000
123.162	12.836	-32.115	1.000000000
123.162	19.647	-32.115	1.000000000
123.162	-45.058	-26.216	1.000000000
123.162	-38.247	-26.216	1.000000000
123.162	-31.436	-26.216	1.000000000
123.162	-24.625	-26.216	1.000000000
123.162	-17.814	-26.216	1.000000000
123.162	-11.003	-26.216	1.000000000
123.162	-4.192	-26.216	1.000000000
123.162	2.619	-26.216	1.000000000
123.162	9.430	-26.216	1.000000000
123.162	16.241	-26.216	1.000000000
123.162	23.052	-26.216	1.000000000
123.162	29.863	-26.216	1.000000000
123.162	36.674	-26.216	1.000000000
123.162	43.485	-26.216	1.000000000
123.162	-41.652	-20.318	1.000000000
123.162	-34.841	-20.318	1.000000000
123.162	-28.030	-20.318	1.000000000
123.162	-21.219	-20.318	1.000000000
123.162	-14.408	-20.318	1.000000000
123.162	-7.597	-20.318	1.000000000
123.162	-0.786	-20.318	1.000000000
123.162	6.025	-20.318	1.000000000
123.162	12.836	-20.318	1.000000000
123.162	19.647	-20.318	1.000000000
123.162	26.458	-20.318	1.000000000
123.162	33.269	-20.318	1.000000000
123.162	40.080	-20.318	1.000000000
123.162	-38.247	-14.419	1.000000000
123.162	-31.436	-14.419	1.000000000
123.162	-24.625	-14.419	1.000000000
123.162	-17.814	-14.419	1.000000000
123.162	-11.003	-14.419	1.000000000
123.162	-4.192	-14.419	1.000000000
123.162	2.619	-14.419	1.000000000
123.162	9.430	-14.419	1.000000000
123.162	16.241	-14.419	1.000000000
123.162	23.052	-14.419	1.000000000
123.162	29.863	-14.419	1.000000000
123.162	36.674	-14.419	1.000000000
123.162	43.485	-14.419	1.000000000
123.162	-41.652	-8.521	1.000000000
123.162	-34.841	-8.521	1.000000000
123.162	-28.030	-8.521	1.000000000
123.162	-21.219	-8.521	1.000000000
123.162	-14.408	-8.521	1.000000000
123.162	-7.597	-8.521	1.000000000
123.162	-0.786	-8.521	1.000000000
123.162	6.025	-8.521	1.000000000
123.162	12.836	-8.521	1.000000000
123.162	19.647	-8.521	1.000000000
123.162	26.458	-8.521	1.000000000
123.162	33.269	-8.521	1.000000000
123.162	40.080	-8.521	1.000000000
123.162	46.891	-8.521	1.000000000
123.162	-45.058	-2.622	1.000000000
123.162	-38.247	-2.622	1.000000000
123.162	-31.436	-2.622	1.000000000
123.162	-24.625	-2.622	1.000000000
123.162	-17.814	-2.622	1.000000000
123.162	-11.003	-2.622	1.000000000
123.162	-4.192	-2.622	1.000000000
123.162	2.619	-2.622	1.000000000
123.162	9.430	-2.622	1.000000000
123.162	16.241	-2.622	1.000000000
123.162	36.674	-2.622	1.000000000
123.162	43.485	-2.622	1.000000000
123.162	-41.652	3.276	1.000000000
123.162	-34.841	3.276	1.000000000
123.162	-28.030	3.276	1.000000000
123.162	-21.219	3.276	1.000000000
123.162	-14.408	3.276	1.000000000
123.162	-7.597	3.276	1.000000000
123.162	-0.786	3.276	1.000000000
123.162	6.025	3.276	1.000000000
123.162	12.836	3.276	1.000000000
123.162	19.647	3.276	1.000000000
123.162	26.458	3.276	1.000000000
123.162	-45.058	9.175	1.000000000
123.162	-38.247	9.175	1.000000000
123.162	-31.436	9.175	1.000000000
123.162	-24.625	9.175	1.000000000
123.162	-17.814	9.175	1.000000000
123.162	-11.003	9.175	1.000000000
123.162	-4.192	9.175	1.000000000
123.162	2.619	9.175	1.000000000
123.162	9.430	9.175	1.000000000
123.162	16.241	9.175	1.000000000
123.162	23.052	9.175	1.000000000
123.162	-41.652	15.073	1.000000000
123.162	-34.841	15.073	1.000000000
123.162	-28.030	15.073	1.000000000
123.162	-21.219	15.073	1.000000000
123.162	-14.408	15.073	1.000000000
123.162	-7.597	15.073	1.000000000
123.162	-0.786	15.073	1.000000000
123.162	6.025	15.073	1.000000000
123.162	12.836	15.073	1.000000000
123.162	19.647	15.073	1.000000000
123.162	-38.247	20.972	1.000000000
123.162	-31.436	20.972	1.000000000
123.162	-24.625	20.972	1.000000000
123.162	-17.814	20.972	1.000000000
123.162	-11.003	20.972	1.000000000
123.162	-4.192	20.972	1.000000000
123.162	2.619	20.972	1.000000000
123.162	9.430	20.972	1.000000000
123.162	16.241	20.972	1.000000000
123.162	-41.652	26.870	1.000000000
123.162	-34.841	26.870	1.000000000
123.162	-28.030	26.870	1.000000000
123.162	-21.219	26.870	1.000000000
123.162	-14.408	26.870	1.000000000
123.162	-7.597	26.870	1.000000000
123.162	-0.786	26.870	1.000000000
123.162	6.025	26.870	1.000000000
123.162	12.836	26.870	1.000000000
123.162	19.647	26.870	1.000000000
123.162	46.891	26.870	1.000000000
123.162	-45.058	32.769	1.000000000
123.162	-38.247	32.769	1.000000000
123.162	-31.436	32.769	1.000000000
123.162	-24.625	32.769	1.000000000
123.162	-17.814	32.769	1.000000000
123.162	-11.003	32.769	1.000000000
123.162	-4.192	32.769	1.000000000
123.162	2.619	32.769	1.000000000
123.162	9.430	32.769	1.000000000
123.162	16.241	32.769	1.000000000
123.162	23.052	32.769	1.000000000
123.162	36.674	32.769	1.000000000
123.162	43.485	32.769	1.000000000
123.162	-41.652	38.667	1.000000000
123.162	-34.841	38.667	1.000000000
123.162	-28.030	38.667	1.000000000
123.162	-21.219	38.667	1.000000000
123.162	-14.408	38.667	1.000000000
123.162	-7.597	38.667	1.000000000
123.162	-0.786	38.667	1.000000000
123.162	6.025	38.667	1.000000000
123.162	12.836	38.667	1.000000000
123.162	26.458	38.667	1.000000000
123.162	33.269	38.667	1.000000000
123.162	-38.247	44.566	1.000000000
123.162	-31.436	44.566	1.000000000
123.162	-24.625	44.566	1.000000000
123.162	-17.814	44.566	1.000000000
123.162	-4.192	44.566	1.000000000
123.162	2.619	44.566	1.000000000
123.162	9.430	44.566	1.000000000
123.162	23.052	44.566	1.000000000
123.162	-21.219	50.464	1.000000000
120.069	-32.055	-38.817	1.000000000
120.069	-25.120	-38.817	1.000000000
120.069	-18.185	-38.817	1.000000000
120.069	-11.251	-38.817	1.000000000
120.069	-4.316	-38.817	1.000000000
120.069	2.619	-38.817	1.000000000
120.069	9.554	-38.817	1.000000000
120.069	-42.457	-32.811	1.000000000
120.069	-35.522	-32.811	1.000000000
120.069	-28.587	-32.811	1.000000000
120.069	-21.653	-32.811	1.000000000
120.069	-14.718	-32.811	1.000000000
120.069	-7.783	-32.811	1.000000000
120.069	-0.848	-32.811	1.000000000
120.069	6.086	-32.811	1.000000000
120.069	13.021	-32.811	1.000000000
120.069	19.956	-32.811	1.000000000
120.069	26.891	-32.811	1.000000000
120.069	33.826	-32.811	1.000000000
120.069	-45.924	-26.806	1.000000000
120.069	-38.990	-26.806	1.000000000
120.069	-32.055	-26.806	1.000000000
120.069	-25.120	-26.806	1.000000000
120.069	-18.185	-26.806	1.000000000
120.069	-11.251	-26.806	1.000000000
120.069	-4.316	-26.806	1.000000000
120.069	2.619	-26.806	1.000000000
120.069	9.554	-26.806	1.000000000
120.069	16.489	-26.806	1.000000000
120.069	23.423	-26.806	1.000000000
120.069	30.358	-26.806	1.000000000
120.069	-35.522	-20.800	1.000000000
120.069	-28.587	-20.800	1.000000000
120.069	-21.653	-20.800	1.000000000
120.069	-14.718	-20.800	1.000000000
120.069	-7.783	-20.800	1.000000000
120.069	-0.848	-20.800	1.000000000
120.069	6.086	-20.800	1.000000000
120.069	19.956	-20.800	1.000000000
120.069	26.891	-20.800	1.000000000
120.069	33.826	-20.800	1.000000000
120.069	-38.990	-14.794	1.000000000
120.069	-32.055	-14.794	1.000000000
120.069	-25.120	-14.794	1.000000000
120.069	-18.185	-14.794	1.000000000
120.069	-11.251	-14.794	1.000000000
120.069	-4.316	-14.794	1.000000000
120.069	2.619	-14.794	1.000000000
120.069	9.554	-14.794	1.000000000
120.069	16.489	-14.794	1.000000000
120.069	30.358	-14.794	1.000000000
120.069	37.293	-14.794	1.000000000
120.069	-42.457	-8.789	1.000000000
120.069	-35.522	-8.789	1.000000000
120.069	-28.587	-8.789	1.000000000
120.069	-21.653	-8.789	1.000000000
120.069	-14.718	-8.789	1.000000000
120.069	-7.783	-8.789	1.000000000
120.069	-0.848	-8.789	1.000000000
120.069	6.086	-8.789	1.000000000
120.069	13.021	-8.789	1.000000000
120.069	19.956	-8.789	1.000000000
120.069	-45.924	-2.783	1.000000000
120.069	-38.990	-2.783	1.000000000
120.069	-32.055	-2.783	1.000000000
120.069	-25.120	-2.783	1.000000000
120.069	-18.185	-2.783	1.000000000
120.069	-11.251	-2.783	1.000000000
120.069	-4.316	-2.783	1.000000000
120.069	2.619	-2.783	1.000000000
120.069	9.554	-2.783	1.000000000
120.069	16.489	-2.783	1.000000000
120.069	23.423	-2.783	1.000000000
120.069	-42.457	3.223	1.000000000
120.069	-35.522	3.223	1.000000000
120.069	-28.587	3.223	1.000000000
120.069	-21.653	3.223	1.000000000
120.069	-14.718	3.223	1.000000000
120.069	-7.783	3.223	1.000000000
120.069	-0.848	3.223	1.000000000
120.069	6.086	3.223	1.000000000
120.069	13.021	3.223	1.000000000
120.069	19.956	3.223	1.000000000
120.069	26.891	3.223	1.000000000
120.069	-45.924	9.228	1.000000000
120.069	-38.990	9.228	1.000000000
120.069	-32.055	9.228	1.000000000
120.069	-25.120	9.228	1.000000000
120.069	-18.185	9.228	1.000000000
120.069	-11.251	9.228	1.000000000
120.069	-4.316	9.228	1.000000000
120.069	2.619	9.228	1.000000000
120.069	9.554	9.228	1.000000000
120.069	16.489	9.228	1.000000000
120.069	23.423	9.228	1.000000000
120.069	30.358	9.228	1.000000000
120.069	-42.457	15.234	1.000000000
120.069	-35.522	15.234	1.000000000
120.069	-28.587	15.234	1.000000000
120.069	-21.653	15.234	1.000000000
120.069	-14.718	15.234	1.000000000
120.069	-7.783	15.234	1.000000000
120.069	-0.848	15.234	1.000000000
120.069	6.086	15.234	1.000000000
120.069	13.021	15.234	1.000000000
120.069	19.956	15.234	1.000000000
120.069	26.891	15.234	1.000000000
120.069	33.826	15.234	1.000000000
120.069	-38.990	21.240	1.000000000
120.069	-32.055	21.240	1.000000000
120.069	-25.120	21.240	1.000000000
120.069	-18.185	21.240	1.000000000
120.069	-11.251	21.240	1.000000000
120.069	-4.316	21.240	1.000000000
120.069	2.619	21.240	1.000000000
120.069	9.554	21.240	1.000000000
120.069	16.489	21.240	1.000000000
120.069	23.423	21.240	1.000000000
120.069	30.358	21.240	1.000000000
120.069	37.293	21.240	1.000000000
120.069	44.228	21.240	1.000000000
120.069	-42.457	27.245	1.000000000
120.069	-28.587	27.245	1.000000000
120.069	-21.653	27.245	1.000000000
120.069	-14.718	27.245	1.000000000
120.069	-7.783	27.245	1.000000000
120.069	-0.848	27.245	1.000000000
120.069	6.086	27.245	1.000000000
120.069	13.021	27.245	1.000000000
120.069	19.956	27.245	1.000000000
120.069	26.891	27.245	1.000000000
120.069	40.760	27.245	1.000000000
120.069	-32.055	33.251	1.000000000
120.069	-25.120	33.251	1.000000000
120.069	-18.185	33.251	1.000000000
120.069	-11.251	33.251	1.000000000
120.069	-4.316	33.251	1.000000000
120.069	2.619	33.251	1.000000000
120.069	9.554	33.251	1.000000000
120.069	16.489	33.251	1.000000000
120.069	23.423	33.251	1.000000000
120.069	30.358	33.251	1.000000000
120.069	37.293	33.251	1.000000000
120.069	-21.653	39.257	1.000000000
120.069	-14.718	39.257	1.000000000
120.069	-7.783	39.257	1.000000000
120.069	-0.848	39.257	1.000000000
120.069	6.086	39.257	1.000000000
120.069	13.021	39.257	1.000000000
120.069	19.956	39.257	1.000000000
120.069	-18.185	45.263	1.000000000
120.069	-11.251	45.263	1.000000000
120.069	-4.316	45.263	1.000000000
120.069	2.619	45.263	1.000000000
120.069	9.554	45.263	1.000000000
120.069	16.489	45.263	1.000000000
120.069	-7.783	51.268	1.000000000
120.069	-0.848	51.268	1.000000000
116.873	-36.218	-39.638	1.000000000
116.873	-29.156	-39.638	1.000000000
116.873	-22.095	-39.638	1.000000000
116.873	-15.034	-39.638	1.000000000
116.873	-7.973	-39.638	1.000000000
116.873	-0.912	-39.638	1.000000000
116.873	6.150	-39.638	1.000000000
116.873	13.211	-39.638	1.000000000
116.873	20.272	-39.638	1.000000000
116.873	-39.748	-33.523	1.000000000
116.873	-32.687	-33.523	1.000000000
116.873	-25.626	-33.523	1.000000000
116.873	-18.565	-33.523	1.000000000
116.873	-11.503	-33.523	1.000000000
116.873	-4.442	-33.523	1.000000000
116.873	2.619	-33.523	1.000000000
116.873	9.680	-33.523	1.000000000
116.873	16.741	-33.523	1.000000000
116.873	30.864	-33.523	1.000000000
116.873	-29.156	-27.408	1.000000000
116.873	-22.095	-27.408	1.000000000
116.873	6.150	-27.408	1.000000000
116.873	13.211	-27.408	1.000000000
116.873	20.272	-27.408	1.000000000
116.873	-32.687	-21.293	1.000000000
116.873	-25.626	-21.293	1.000000000
116.873	-18.565	-21.293	1.000000000
116.873	-11.503	-21.293	1.000000000
116.873	-4.442	-21.293	1.000000000
116.873	2.619	-21.293	1.000000000
116.873	9.680	-21.293	1.000000000
116.873	-43.279	-15.178	1.000000000
116.873	-36.218	-15.178	1.000000000
116.873	-29.156	-15.178	1.000000000
116.873	-22.095	-15.178	1.000000000
116.873	-15.034	-15.178	1.000000000
116.873	-7.973	-15.178	1.000000000
116.873	-0.912	-15.178	1.000000000
116.873	6.150	-15.178	1.000000000
116.873	13.211	-15.178	1.000000000
116.873	20.272	-15.178	1.000000000
116.873	-39.748	-9.062	1.000000000
116.873	-32.687	-9.062	1.000000000
116.873	-25.626	-9.062	1.000000000
116.873	-18.565	-9.062	1.000000000
116.873	-11.503	-9.062	1.000000000
116.873	-4.442	-9.062	1.000000000
116.873	2.619	-9.062	1.000000000
116.873	9.680	-9.062	1.000000000
116.873	16.741	-9.062	1.000000000
116.873	23.803	-9.062	1.000000000
116.873	30.864	-9.062	1.000000000
116.873	-43.279	-2.947	1.000000000
116.873	-36.218	-2.947	1.000000000
116.873	-29.156	-2.947	1.000000000
116.873	-22.095	-2.947	1.000000000
116.873	-15.034	-2.947	1.000000000
116.873	-7.973	-2.947	1.000000000
116.873	-0.912	-2.947	1.000000000
116.873	6.150	-2.947	1.000000000
116.873	13.211	-2.947	1.000000000
116.873	20.272	-2.947	1.000000000
116.873	27.333	-2.947	1.000000000
116.873	-39.748	3.168	1.000000000
116.873	-32.687	3.168	1.000000000
116.873	-25.626	3.168	1.000000000
116.873	-18.565	3.168	1.000000000
116.873	-11.503	3.168	1.000000000
116.873	-4.442	3.168	1.000000000
116.873	2.619	3.168	1.000000000
116.873	9.680	3.168	1.000000000
116.873	16.741	3.168	1.000000000
116.873	23.803	3.168	1.000000000
116.873	30.864	3.168	1.000000000
116.873	-43.279	9.283	1.000000000
116.873	-36.218	9.283	1.000000000
116.873	-29.156	9.283	1.000000000
116.873	-22.095	9.283	1.000000000
116.873	-0.912	9.283	1.000000000
116.873	6.150	9.283	1.000000000
116.873	13.211	9.283	1.000000000
116.873	20.272	9.283	1.000000000
116.873	27.333	9.283	1.000000000
116.873	34.394	9.283	1.000000000
116.873	-25.626	15.398	1.000000000
116.873	9.680	15.398	1.000000000
116.873	16.741	15.398	1.000000000
116.873	23.803	15.398	1.000000000
116.873	30.864	15.398	1.000000000
116.873	37.925	15.398	1.000000000
116.873	44.986	15.398	1.000000000
116.873	13.211	21.513	1.000000000
116.873	20.272	21.513	1.000000000
116.873	27.333	21.513	1.000000000
116.873	34.394	21.513	1.000000000
116.873	41.456	21.513	1.000000000
116.873	9.680	27.629	1.000000000
116.873	16.741	27.629	1.000000000
116.873	23.803	27.629	1.000000000
116.873	30.864	27.629	1.000000000
116.873	37.925	27.629	1.000000000
116.873	6.150	33.744	1.000000000
116.873	13.211	33.744	1.000000000
116.873	20.272	33.744	1.000000000
116.873	9.680	39.859	1.000000000
116.873	16.741	39.859	1.000000000
113.514	-36.979	-37.420	1.000000000
113.514	-29.779	-37.420	1.000000000
113.514	-22.579	-37.420	1.000000000
113.514	-15.380	-37.420	1.000000000
113.514	-8.180	-37.420	1.000000000
113.514	-0.981	-37.420	1.000000000
113.514	6.219	-37.420	1.000000000
113.514	13.418	-37.420	1.000000000
113.514	20.618	-37.420	1.000000000
113.514	-40.578	-31.185	1.000000000
113.514	-33.379	-31.185	1.000000000
113.514	-26.179	-31.185	1.000000000
113.514	-18.980	-31.185	1.000000000
113.514	-11.780	-31.185	1.000000000
113.514	-29.779	-24.950	1.000000000
113.514	-22.579	-24.950	1.000000000
113.514	-15.380	-24.950	1.000000000
113.514	-8.180	-24.950	1.000000000
113.514	-0.981	-24.950	1.000000000
113.514	-40.578	-18.715	1.000000000
113.514	-33.379	-18.715	1.000000000
113.514	-26.179	-18.715	1.000000000
113.514	-18.980	-18.715	1.000000000
113.514	-11.780	-18.715	1.000000000
113.514	-4.581	-18.715	1.000000000
113.514	2.619	-18.715	1.000000000
113.514	9.819	-18.715	1.000000000
113.514	-44.178	-12.480	1.000000000
113.514	-36.979	-12.480	1.000000000
113.514	-29.779	-12.480	1.000000000
113.514	-22.579	-12.480	1.000000000
113.514	-15.380	-12.480	1.000000000
113.514	-8.180	-12.480	1.000000000
113.514	-0.981	-12.480	1.000000000
113.514	6.219	-12.480	1.000000000
113.514	13.418	-12.480	1.000000000
113.514	20.618	-12.480	1.000000000
113.514	27.818	-12.480	1.000000000
113.514	35.017	-12.480	1.000000000
113.514	-40.578	-6.245	1.000000000
113.514	-33.379	-6.245	1.000000000
113.514	-26.179	-6.245	1.000000000
113.514	-18.980	-6.245	1.000000000
113.514	-11.780	-6.245	1.000000000
113.514	-4.581	-6.245	1.000000000
113.514	2.619	-6.245	1.000000000
113.514	9.819	-6.245	1.000000000
113.514	17.018	-6.245	1.000000000
113.514	24.218	-6.245	1.000000000
113.514	31.417	-6.245	1.000000000
113.514	-44.178	-0.009	1.000000000
113.514	-36.979	-0.009	1.000000000
113.514	-29.779	-0.009	1.000000000
113.514	-22.579	-0.009	1.000000000
113.514	-15.380	-0.009	1.000000000
113.514	-8.180	-0.009	1.000000000
113.514	-0.981	-0.009	1.000000000
113.514	6.219	-0.009	1.000000000
113.514	13.418	-0.009	1.000000000
113.514	20.618	-0.009	1.000000000
113.514	27.818	-0.009	1.000000000
113.514	35.017	-0.009	1.000000000
113.514	-40.578	6.226	1.000000000
113.514	9.819	6.226	1.000000000
113.514	24.218	6.226	1.000000000
113.514	31.417	6.226	1.000000000
113.514	38.617	6.226	1.000000000
113.514	20.618	12.461	1.000000000
113.514	35.017	12.461	1.000000000
113.514	42.217	12.461	1.000000000
113.514	24.218	18.696	1.000000000
113.514	31.417	18.696	1.000000000
113.514	20.618	24.931	1.000000000
113.514	27.818	24.931	1.000000000
110.042	-23.206	-38.505	1.000000000
110.042	-15.827	-38.505	1.000000000
110.042	-8.449	-38.505	1.000000000
110.042	-1.070	-38.505	1.000000000
110.042	6.308	-38.505	1.000000000
110.042	13.687	-38.505	1.000000000
110.042	21.065	-38.505	1.000000000
110.042	28.444	-38.505	1.000000000
110.042	-41.652	-32.115	1.000000000
110.042	-34.274	-32.115	1.000000000
110.042	-26.895	-32.115	1.000000000
110.042	-19.517	-32.115	1.000000000
110.042	-12.138	-32.115	1.000000000
110.042	-4.760	-32.115	1.000000000
110.042	-37.963	-25.725	1.000000000
110.042	-30.584	-25.725	1.000000000
110.042	-23.206	-25.725	1.000000000
110.042	-15.827	-25.725	1.000000000
110.042	-8.449	-25.725	1.000000000
110.042	-1.070	-25.725	1.000000000
110.042	6.308	-25.725	1.000000000
110.042	-41.652	-19.335	1.000000000
110.042	-34.274	-19.335	1.000000000
110.042	-26.895	-19.335	1.000000000
110.042	-19.517	-19.335	1.000000000
110.042	-12.138	-19.335	1.000000000
110.042	-4.760	-19.335	1.000000000
110.042	2.619	-19.335	1.000000000
110.042	9.998	-19.335	1.000000000
110.042	17.376	-19.335	1.000000000
110.042	24.755	-19.335	1.000000000
110.042	32.133	-19.335	1.000000000
110.042	39.512	-19.335	1.000000000
110.042	46.890	-19.335	1.000000000
110.042	-45.342	-12.945	1.000000000
110.042	-37.963	-12.945	1.000000000
110.042	-30.584	-12.945	1.000000000
110.042	-23.206	-12.945	1.000000000
110.042	-15.827	-12.945	1.000000000
110.042	-8.449	-12.945	1.000000000
110.042	-1.070	-12.945	1.000000000
110.042	6.308	-12.945	1.000000000
110.042	13.687	-12.945	1.000000000
110.042	21.065	-12.945	1.000000000
110.042	28.444	-12.945	1.000000000
110.042	35.823	-12.945	1.000000000
110.042	43.201	-12.945	1.000000000
110.042	50.580	-12.945	1.000000000
110.042	-26.895	-6.554	1.000000000
110.042	17.376	-6.554	1.000000000
110.042	24.755	-6.554	1.000000000
110.042	32.133	-6.554	1.000000000
110.042	39.512	-6.554	1.000000000
110.042	46.890	-6.554	1.000000000
110.042	28.444	-0.164	1.000000000
110.042	35.823	-0.164	1.000000000
110.042	43.201	-0.164	1.000000000
110.042	39.512	6.226	1.000000000
110.042	46.890	6.226	1.000000000
106.527	-20.341	-40.170	1.000000000
106.527	-12.687	-40.170	1.000000000
106.527	-5.034	-40.170	1.000000000
106.527	2.619	-40.170	1.000000000
106.527	10.272	-40.170	1.000000000
106.527	17.925	-40.170	1.000000000
106.527	25.579	-40.170	1.000000000
106.527	-39.474	-33.542	1.000000000
106.527	-24.167	-33.542	1.000000000
106.527	-16.514	-33.542	1.000000000
106.527	-8.861	-33.542	1.000000000
106.527	-1.208	-33.542	1.000000000
106.527	6.446	-33.542	1.000000000
106.527	14.099	-33.542	1.000000000
106.527	21.752	-33.542	1.000000000
106.527	-43.300	-26.914	1.000000000
106.527	-35.647	-26.914	1.000000000
106.527	-27.994	-26.914	1.000000000
106.527	-20.341	-26.914	1.000000000
106.527	-12.687	-26.914	1.000000000
106.527	-5.034	-26.914	1.000000000
106.527	2.619	-26.914	1.000000000
106.527	10.272	-26.914	1.000000000
106.527	17.925	-26.914	1.000000000
106.527	25.579	-26.914	1.000000000
106.527	33.232	-26.914	1.000000000
106.527	40.885	-26.914	1.000000000
106.527	-39.474	-20.286	1.000000000
106.527	-31.820	-20.286	1.000000000
106.527	-16.514	-20.286	1.000000000
106.527	-8.861	-20.286	1.000000000
106.527	-1.208	-20.286	1.000000000
106.527	6.446	-20.286	1.000000000
106.527	14.099	-20.286	1.000000000
106.527	21.752	-20.286	1.000000000
106.527	29.405	-20.286	1.000000000
106.527	37.058	-20.286	1.000000000
106.527	-35.647	-13.658	1.000000000
106.527	-27.994	-13.658	1.000000000
106.527	17.925	-13.658	1.000000000
106.527	25.579	-13.658	1.000000000
106.527	33.232	-13.658	1.000000000
106.527	40.885	-13.658	1.000000000
106.527	29.405	-7.030	1.000000000
106.527	37.058	-7.030	1.000000000
106.527	44.712	-7.030	1.000000000
106.527	40.885	-0.402	1.000000000
